Time (s),Var Fp1,F7,Fp1,Fp2,F8,F3,Fz,F4,C3,Cz,P8,P7,Pz,P4,T3,P3,O1,O2,C4,T4,A2,ExG 1,notes
1,19.89,17242.8,20113.5,20430.4,21010.4,14850.8,17791.8,18008.1,14412.4,16183.1,28073.0,20712.2,19912.2,22354.1,19058.7,16254.8,19634.1,22727.9,21933.9,27475.3,0.0,54211423.7,
2,20.138,11779.4,18323.7,20780.4,13236.5,12107.2,15527.3,13744.7,8974.0,13242.9,17036.8,9197.5,10937.5,11608.5,9069.1,6710.3,9275.6,15291.7,14988.3,14139.2,0.0,116310035.4,
3,10.708,22554.8,28155.1,23067.0,30099.9,23581.8,25084.4,25444.2,23014.5,25736.7,33679.2,17795.9,27194.5,34867.0,18743.2,21234.7,24833.5,33954.4,33102.6,41954.7,0.0,246946331.7,
4,6.672,19534.0,80573.7,141019.7,76832.2,25323.9,45377.6,55431.6,17489.0,52101.6,38550.1,36548.5,24810.7,29983.8,26212.4,20602.5,37756.6,26403.2,32057.6,51052.7,0.0,172302563.0,
5,8.029,17916.2,29366.4,37486.0,41106.2,22250.8,33650.2,33095.7,24928.6,63733.5,18073.6,14466.3,29790.2,22389.1,12773.1,22728.7,16320.4,23750.1,33905.8,32216.9,0.0,198933568.5,
6,24.398,17008.9,28725.7,34396.4,26964.3,18671.9,18783.8,19313.4,13971.3,44004.4,18017.0,11984.7,22284.5,20414.3,11142.7,9753.0,15274.3,24515.7,29776.0,22667.3,0.0,560958361.0,
7,8.525,13539.1,31509.3,55716.8,53193.0,25577.7,36725.8,44330.7,21015.8,51839.4,32227.6,14215.8,39007.3,37023.3,11537.1,21826.8,27790.4,43072.5,47387.5,34498.2,0.0,90104632.3,
8,8.232,45309.6,68835.2,68182.9,957601.6,50319.4,58096.6,59954.1,37603.0,58809.3,54388.3,31748.7,44135.1,52334.9,33482.2,40685.5,39608.0,45214.1,66744.1,63463.1,0.0,243842665.7,
9,49.581,21147.0,21099.6,19157.6,18075.3,18857.3,16874.6,15478.0,19222.2,24519.6,14000.9,13441.5,13786.4,14061.0,20663.9,15985.6,12744.9,14308.4,20824.1,19112.5,0.0,212826360.0,
10,51.696,20468.5,65194.7,58301.2,25921.4,24089.4,34302.4,32038.3,15442.6,46487.7,19281.2,13362.6,22589.4,19350.5,19533.5,14104.8,16285.1,17546.3,21638.0,22953.7,0.0,526228927.9,
11,48.491,12762.0,44673.2,33351.3,12090.9,18757.0,20852.1,18638.0,17176.9,26474.8,13655.5,10294.1,18275.9,13266.1,12098.9,15241.4,17603.8,15165.3,11347.5,11059.1,0.0,367330000.7,
12,1.456,12660.4,18264.9,17094.7,9040.6,12517.8,15324.1,15520.3,10722.0,70259.6,9142.3,11993.5,14412.5,11369.1,11584.4,7866.1,11892.0,9646.0,10888.5,8477.8,0.0,397508621.2,
13,0.959,17015.4,18761.6,22048.9,22745.7,18983.1,20952.8,22146.0,19484.3,32858.7,22449.7,11145.3,24378.5,22828.1,13558.7,17761.8,15839.4,21429.3,21806.0,26569.2,0.0,68341370.4,
14,1.088,7400.5,8281.4,7787.9,7497.5,6876.1,6202.9,5400.6,9403.2,38851.8,12658.8,6706.3,15180.9,11967.3,7012.5,8821.9,10051.2,22238.1,11326.1,10156.9,0.0,34993641.4,
15,1.257,5119.2,7596.7,12573.6,17256.5,8251.7,11130.2,13905.2,9628.5,22324.7,17160.8,8492.5,13562.1,13442.4,7410.6,8433.4,7940.0,14909.2,14086.8,23836.4,0.0,5590875.7,
16,1.137,7555.2,8732.5,8329.3,9712.7,8265.7,8306.4,8530.5,6654.1,22142.8,11751.3,5727.6,11133.1,9325.5,8674.1,7120.4,8396.0,17132.4,7661.3,9259.4,0.0,3299485.5,
17,1.261,15978.5,15272.3,20079.7,18060.9,15816.8,17715.2,17460.8,18549.5,23128.5,15391.1,14761.5,16208.0,14702.4,16182.9,18343.4,16694.3,16766.9,16043.1,16062.7,0.0,3980259.7,
18,1.543,20134.6,23302.3,22794.5,24176.1,23963.5,24652.1,26461.1,23953.9,37674.2,32932.6,21093.1,30416.3,32934.0,17307.8,25862.9,25686.5,29251.0,32938.0,32294.4,0.0,2368558.5,
19,1.141,10694.7,12175.9,19586.4,18289.6,14963.6,17879.9,17580.7,18703.7,19494.6,20587.3,12272.9,26846.7,25758.6,13929.0,20592.1,16515.8,26549.9,20466.2,20725.8,0.0,2439203.1,
20,1.656,12384.5,18473.0,20444.2,11508.8,14181.9,14788.2,14569.8,13087.5,21228.7,11247.0,13573.9,14737.0,12495.0,11319.3,12276.3,13413.8,12485.9,10040.4,10971.9,0.0,3618892.6,
21,1.709,21901.4,24328.1,26498.6,30077.2,24881.9,27858.2,33738.5,21351.3,26159.8,22763.6,15189.0,28216.2,27629.5,19543.2,18825.5,17632.0,21884.9,40025.2,27215.5,0.0,2419466.4,
22,1.274,6534.9,6460.0,9344.0,17466.6,6630.5,7017.8,9513.0,7373.1,9606.6,14374.1,10578.0,12233.4,12790.9,10121.2,10274.7,13116.6,13136.1,18048.0,21008.2,0.0,2174778.1,
23,1.112,11660.2,16207.3,22139.3,17442.2,16807.1,21685.0,23313.9,12895.1,18602.0,12580.4,9695.8,12291.8,11548.5,11680.0,12063.2,17894.9,12465.2,18749.7,16266.7,0.0,2261224.6,
24,1.055,9722.7,12822.7,16938.1,13830.4,16903.2,18767.4,16268.3,16258.5,18578.9,20117.3,11077.7,14019.5,14805.5,11025.5,13876.7,10993.3,16051.2,14812.7,18445.0,0.0,2128362.9,
25,1.157,15899.1,16891.6,18356.6,19259.8,18673.1,20312.3,18314.3,18483.5,18817.4,16723.9,12986.2,16550.0,17519.1,14563.3,17194.7,15445.1,18646.5,16433.4,18119.7,0.0,2118008.0,
26,1.173,10118.0,12763.3,15254.1,14100.5,11241.7,15610.9,14777.0,8768.7,11406.0,18214.8,13011.9,12276.4,9781.9,8829.6,9355.0,21796.6,19331.3,11666.0,19787.7,0.0,2106662.0,
27,1.532,19097.5,20057.3,18885.7,19184.4,18113.6,21916.6,18231.4,14435.1,18872.5,26833.8,18414.0,16886.0,19123.9,18943.3,14954.3,14795.2,18366.7,21246.3,33856.0,0.0,2036706.9,
28,1.124,10614.6,9462.2,9306.8,10271.2,10555.1,12801.0,10904.4,11154.4,17205.1,13366.1,11668.9,25825.5,18420.0,13572.4,15090.6,16104.4,27931.2,11559.2,10191.4,0.0,2088266.3,
29,1.197,12749.3,16313.8,22264.1,29516.4,20112.9,24263.4,26950.0,17230.4,34513.7,38254.3,13450.0,41052.8,39589.0,11460.0,21239.1,31364.8,40867.9,37064.3,38669.5,0.0,2197058.5,
30,1.031,9149.4,14535.8,19348.7,15522.8,16531.7,20211.2,18300.8,17290.5,22665.0,21675.0,19209.4,23983.0,18758.4,13475.4,20696.2,27439.0,31233.9,18477.0,19487.9,0.0,2184848.1,
31,1.112,12102.5,19799.9,24734.0,23171.8,20159.8,28602.0,28414.8,15022.6,29227.7,22845.6,7752.9,30801.0,31745.2,8205.2,17843.8,13088.4,29698.4,28727.4,29768.1,0.0,2624876.5,
32,1.032,6369.8,8740.4,9482.4,9229.4,9609.8,11564.4,10735.4,8006.2,20194.3,13068.1,12629.3,16310.0,13196.8,9778.1,11909.2,15314.2,15988.3,10927.5,13031.7,0.0,6420377.2,
33,0.977,10982.2,16920.6,22145.4,24232.7,18549.8,23318.7,25138.3,20814.4,32707.8,25142.8,12234.7,28048.7,28462.4,12039.6,15746.2,20291.9,27538.4,28784.7,34598.5,0.0,6642140.5,
34,1.089,8170.4,10457.0,15482.5,17154.1,13115.4,14630.6,17747.1,13816.5,19727.0,17347.7,11613.2,26290.8,22216.0,8292.0,17115.5,21732.9,29096.9,20175.3,17892.4,0.0,6030406.7,
35,1.232,11819.8,14125.1,18386.6,17163.5,12905.5,15788.3,15771.8,11162.8,19737.9,18337.1,9934.6,13215.2,16156.3,10399.4,13135.7,16641.0,17259.3,17384.8,17955.7,0.0,2425282.9,
36,1.197,18008.9,20321.4,25124.1,20847.4,23724.0,28972.4,26573.6,17493.6,25246.4,18724.5,11896.7,15428.7,18849.0,13606.4,17550.3,17275.6,16345.4,21604.8,26443.4,0.0,2358279.8,
37,1.034,8209.4,10680.6,14151.7,17065.5,9392.9,10261.8,14395.3,12834.5,17312.4,17581.2,13342.6,12763.8,15129.7,12303.9,13166.0,9242.3,13241.9,16864.8,16920.5,0.0,2336287.8,
38,1.1,8636.4,10990.1,11664.5,15315.9,11282.8,12812.5,12330.3,9392.1,19891.5,20870.8,11634.4,17608.3,15518.5,8689.0,10038.1,12705.0,16756.4,16342.5,28332.9,0.0,2546489.4,
39,1.029,7901.3,15562.9,17694.1,20479.9,12406.2,18745.0,18950.6,9873.9,21256.7,21012.2,13450.2,35088.6,19001.8,7606.0,25189.9,48515.9,15670.1,18396.3,29505.1,0.0,2223647.4,
40,1.106,27290.3,23619.5,21951.0,27333.9,23034.3,22347.7,24514.3,26100.1,25086.4,29744.0,30032.8,37116.9,28141.4,29030.8,32888.4,34331.0,27465.7,27561.5,36470.5,0.0,2387062.4,
41,1.256,19322.2,22938.1,24651.9,26123.2,21477.5,25301.6,27442.9,18835.1,28969.5,22784.8,16779.0,31671.0,27552.2,18291.0,23670.1,24912.2,22431.4,26601.8,26829.7,0.0,2473060.3,
42,1.078,12231.7,13306.2,17768.7,19178.6,14785.6,16019.5,19440.7,10581.7,25115.8,24659.4,6071.2,27135.7,17426.5,8554.4,13777.8,12355.9,21132.5,16810.7,27168.7,0.0,2565779.8,
43,1.205,14427.6,21680.3,27331.4,35065.2,22957.6,30925.1,33695.8,22416.3,44897.9,57729.4,6933.8,72482.7,62152.8,9761.4,34435.8,28813.2,62228.8,44571.4,53601.6,0.0,2389608.0,
44,1.018,8940.1,10830.8,13007.2,11053.3,12260.7,12315.3,11443.3,16302.6,16829.5,12602.1,12338.8,16608.0,8009.9,8723.4,17322.5,17950.5,14740.4,8655.6,13472.9,0.0,2504783.4,
45,1.011,11722.6,9710.7,11096.7,13389.4,10930.2,12239.8,13208.8,11552.3,13283.3,11374.6,18378.8,20530.9,12912.8,11796.4,18582.7,32355.9,14278.8,12887.7,13690.0,0.0,2502150.0,
46,1.103,13225.9,17793.8,18668.7,22401.8,20265.6,25733.4,26672.3,17772.5,28250.7,20493.6,14847.6,35853.7,32069.5,13924.5,18046.7,12966.3,21929.0,27158.4,28891.5,0.0,2591653.6,
47,0.987,5974.1,7036.5,7090.3,7481.4,7244.5,9084.8,7591.4,7512.4,10903.6,7390.8,8442.9,8534.0,8303.5,7984.0,10550.0,7242.9,6361.4,6194.1,10248.0,0.0,2604457.8,
48,1.022,10676.6,12007.3,14538.6,11871.8,13033.4,15243.9,13645.8,12592.1,13379.1,15338.4,9358.0,14290.9,14555.6,10035.2,12320.6,11820.9,16559.5,13137.7,13915.5,0.0,2495908.2,
49,1.039,9543.9,11768.4,11737.2,13970.5,13057.2,14477.0,15957.0,13504.9,21139.4,11487.2,14227.2,28035.6,18290.2,10890.9,19144.2,22342.5,17946.9,18174.4,19397.8,0.0,2639387.9,
50,1.007,6852.3,6590.8,8246.6,14630.5,6371.4,7172.9,9245.3,8289.3,13892.1,31160.1,9348.8,26066.3,39471.5,5239.3,12523.8,15256.5,30210.6,24541.8,25300.9,0.0,2618304.3,
51,1.018,7547.1,7352.3,10783.7,10571.3,8853.5,10351.5,9376.8,10748.4,10438.9,13595.6,7362.6,11826.5,12448.4,7614.8,9305.1,10445.5,11971.6,14623.0,14159.4,0.0,2426808.3,
52,0.928,9471.0,8642.6,6645.3,5573.2,11743.6,9839.6,8950.2,12687.6,10337.9,7757.2,10607.8,5680.5,4489.2,11058.2,8971.2,9411.3,7528.9,4904.2,9151.6,0.0,2383319.4,
53,0.966,11163.5,12933.6,17101.1,19546.5,13545.3,16636.9,16888.2,11107.0,16659.2,20202.6,6385.4,17151.8,27004.1,9597.4,10641.1,9732.3,21305.1,24666.8,23437.8,0.0,2418724.6,
54,1.016,13007.0,18279.3,18618.3,17420.2,19623.1,24504.9,23473.4,10290.3,18558.8,21054.7,9827.0,14887.8,14731.0,10554.8,9233.8,10117.2,17737.1,17421.7,21466.4,0.0,2605300.0,
55,0.981,16693.3,16653.5,18165.5,15284.2,15595.7,17766.4,17449.3,13148.5,12856.0,19358.4,12768.0,12368.4,15298.6,13057.6,13097.8,13331.7,10014.8,15873.8,16963.2,0.0,2659725.9,
56,1.047,22197.8,26978.7,27824.6,27515.9,29691.3,29607.6,28781.6,31066.5,33270.8,27819.7,22646.7,32055.8,29820.9,18330.7,29622.1,26807.1,30594.1,28184.3,28419.7,0.0,2693087.1,
57,0.934,8285.7,10326.1,14860.2,16054.4,12165.2,19634.0,17697.9,10854.4,17381.5,20294.0,17831.6,20635.7,20489.4,11277.7,15876.0,25603.0,19367.1,16859.1,16941.0,0.0,2751424.0,
58,0.898,7639.7,8289.6,12488.2,14164.6,9614.3,12919.2,13227.2,12166.6,12155.6,21287.9,9727.7,14250.6,17257.5,9438.0,8799.1,11927.2,18592.1,13821.6,18438.4,0.0,2582738.3,
59,0.929,10570.6,13248.2,12731.9,15751.5,16391.6,20325.4,17262.6,15432.8,20490.2,19653.6,10099.9,16353.2,19688.9,9364.8,12705.7,13615.9,18293.7,20561.3,20614.1,0.0,2757878.3,
60,0.8,8463.3,10164.7,15626.5,19584.5,11866.0,15442.3,17617.2,6915.6,15067.8,28414.4,8369.9,17589.8,26761.4,8887.0,6935.1,12816.3,21591.9,27771.9,27678.4,0.0,2585619.0,
61,0.917,24777.3,23652.0,21575.7,20012.1,30266.7,28034.0,22525.1,30604.1,31013.1,30474.9,34588.0,31368.2,32169.0,29850.8,32992.2,30295.0,29406.9,23859.3,31258.7,0.0,2474660.2,
62,0.917,10429.2,12385.0,15236.4,13411.3,12650.7,15449.1,14862.6,12361.9,18599.6,14966.0,12568.7,16906.7,16016.4,11527.5,13440.9,15679.6,14657.6,17044.2,16596.1,0.0,2431969.8,
63,1.054,18049.2,19385.1,21349.8,14264.9,21969.5,24212.7,19293.1,19143.0,22915.3,32730.3,18877.7,22973.7,26256.8,16167.1,16584.3,22138.6,33444.7,19758.7,21579.7,0.0,2768667.7,
64,0.92,7172.9,9337.2,13928.5,14926.0,8277.4,11770.3,13917.4,8324.5,11727.8,14770.2,9043.9,12367.8,12936.0,6036.3,8719.7,9929.3,14502.2,11201.0,22164.8,0.0,2327084.1,
65,0.788,8505.0,11618.9,16283.3,23626.0,12411.5,17267.5,19527.7,8618.4,14643.5,26676.8,10299.3,11605.1,20329.8,5550.2,9327.4,12836.1,13342.1,24150.8,35528.1,0.0,2517679.2,
66,0.959,11583.5,18481.4,23996.3,24678.8,13910.1,16286.4,23330.7,12595.5,17032.0,24910.6,11937.4,21759.2,30143.6,10979.2,13163.9,12854.2,26576.7,27272.4,27793.5,0.0,2258032.5,
67,0.851,12073.3,9998.4,14802.7,18041.8,11916.2,12990.7,14816.9,14340.4,14687.5,20295.9,16864.4,25383.4,19166.9,10691.1,22216.0,22381.0,20032.5,17540.1,23807.8,0.0,2271761.9,
68,0.973,6597.2,8024.2,11389.4,9509.4,9069.2,13303.7,14205.6,10238.9,23386.0,9333.4,8457.1,35933.1,18106.0,7047.9,12370.2,12079.2,8110.7,17819.1,14003.6,0.0,2407811.7,
69,0.915,14499.1,13546.4,12792.1,14488.6,18424.5,20366.5,20985.3,17926.8,27171.6,28960.7,13061.3,24435.1,31229.1,14890.8,17234.9,16184.8,26713.3,24398.2,28413.4,0.0,2529772.7,
70,0.926,10514.2,12909.2,14494.1,11744.8,13067.4,17036.4,18559.1,11693.4,15873.9,10570.8,11742.6,21126.9,11443.6,10044.1,14265.1,16409.3,12114.4,11889.7,9840.7,0.0,2389376.9,
71,1.006,9205.4,11475.0,12427.1,8926.9,15770.5,15152.1,12185.2,12834.7,15872.6,12693.4,10717.7,12814.9,10649.1,10345.8,11968.6,11485.6,10567.0,10634.3,15249.9,0.0,2240595.1,
72,0.826,7926.0,10200.7,14270.5,16519.3,9526.6,13303.8,13324.6,9800.2,10213.0,14891.1,9894.6,11763.8,12157.5,10459.4,9737.9,8309.2,12655.1,13260.8,17047.8,0.0,2258473.9,
73,230.377,77227.9,631802.8,181119.4,24960.2,26243.7,24912.4,26389.7,10712.5,35722.8,11344.0,13714.8,13624.6,13514.9,11359.5,11978.0,11879.5,11201.4,17492.1,19333.4,0.0,2282027.9,
74,2.132,20194.1,37097.8,29880.0,17165.4,20404.8,22767.8,20018.0,12414.8,16910.6,15109.3,9921.9,12418.5,14129.4,12513.8,9917.9,12790.8,13513.6,16886.4,18118.6,0.0,2010040.5,
75,1.717,12606.2,17450.2,18252.0,17523.4,15735.4,19518.0,22087.1,18470.6,17558.2,20636.7,12539.1,21844.8,21708.9,9795.4,15310.0,14601.0,23039.1,26778.0,16021.2,0.0,2062476.6,
76,1.317,16962.8,16768.7,17911.2,18534.1,18233.8,17081.2,19605.2,21464.9,19753.1,16458.9,17448.5,21070.9,16941.1,13314.3,20244.7,18522.7,15177.4,20635.3,20014.6,0.0,2123902.0,
77,1.179,11215.1,12870.9,10551.7,9659.6,12171.8,11953.9,12345.1,11672.7,16368.2,10782.7,9278.0,15174.0,13166.5,11014.2,12939.1,10348.4,10819.3,11361.2,11217.8,0.0,2220013.8,
78,1.09,10322.6,11624.5,10346.2,11078.6,10031.9,12496.0,10950.2,9256.3,14503.2,13516.1,8199.7,12487.7,13243.3,9351.2,8456.1,9352.8,11844.9,11539.0,13948.9,0.0,2010425.5,
79,1.063,11204.0,15636.6,12243.5,9140.6,12891.9,13954.1,11614.7,14834.0,14819.2,7712.7,13533.4,11897.0,10455.7,12975.1,16876.4,15132.1,7992.2,10668.8,9803.8,0.0,2007071.7,
80,1.144,8354.5,12219.5,15633.5,13047.4,13126.0,17524.3,17511.0,5982.2,15316.1,15474.5,9564.6,14206.8,13966.7,6207.6,9629.2,14403.7,17796.3,11168.5,16252.5,0.0,1738496.6,
81,1.178,9276.5,14130.8,14126.1,15926.2,12799.6,14403.0,14161.9,13315.0,14456.9,17016.8,8875.6,16016.4,14613.1,10107.7,10972.5,9462.1,13621.3,15195.6,20469.3,0.0,1942667.5,red dot
82,1.382,17192.1,21676.4,21869.5,15727.0,14665.7,17769.7,18262.9,14587.5,17322.3,14041.3,8733.7,9310.2,13784.1,11707.4,8763.6,7168.7,9942.2,15485.0,17600.6,0.0,2077057.0,
83,1.008,8888.8,14205.0,18649.7,15574.2,17908.1,18624.4,18850.5,25653.8,18991.9,13606.3,15776.9,13299.7,13629.8,12488.3,24062.9,18719.8,11758.4,20836.8,18510.9,0.0,1923070.7,
84,0.921,8640.7,12454.0,11807.3,10181.1,14358.2,13619.3,12900.1,12985.6,12017.8,10841.6,6987.6,13951.9,12529.7,7661.6,11569.7,10762.7,15146.1,9737.5,11896.7,0.0,2017700.0,
85,0.932,13607.9,13108.7,14233.6,17501.4,14492.0,12901.5,15553.2,22527.0,20205.9,10962.8,12294.1,28237.9,17018.4,14287.9,23039.7,15988.2,9007.1,16564.4,17551.8,0.0,2053220.3,
86,0.994,15654.4,23988.5,30317.6,28837.9,21722.9,25730.3,27667.9,24683.9,29738.1,29846.1,23858.2,31628.3,29720.4,20088.1,25474.4,24882.4,31204.9,29970.4,28925.8,0.0,2050718.2,
87,0.805,13887.0,13079.9,13042.1,13977.3,15916.8,15637.8,15253.4,11484.6,18388.5,17380.7,13244.0,10048.9,13257.7,13339.2,10836.4,11422.6,10945.4,15585.6,19469.7,0.0,1975075.0,
88,0.898,9016.3,9156.3,12296.6,11444.5,11099.4,12775.3,13835.2,12653.0,14513.4,16190.9,12403.7,11956.4,11321.7,12024.3,9623.5,13198.9,13006.8,12155.9,15234.1,0.0,1932934.4,
89,0.876,10853.6,15379.3,16460.4,15641.6,17265.7,19467.2,17818.8,17254.9,25557.4,11350.8,11254.6,13491.8,11702.3,12966.7,13987.5,10923.5,6837.4,13582.2,15306.1,0.0,2212613.6,
90,0.859,9687.5,10725.5,12654.6,13091.3,12259.1,12902.6,14191.5,9568.8,12344.0,13050.0,10275.3,14811.7,15191.0,8950.8,10814.6,15480.3,12915.5,13283.9,16886.9,0.0,2009331.3,
91,0.894,14701.4,16249.9,14849.4,17868.3,19031.7,18693.9,17116.3,19893.2,26180.3,14700.3,20850.9,21117.7,17273.2,17405.9,24829.5,21771.2,16085.3,17335.0,18823.7,0.0,2045185.7,
92,0.921,3152.6,5995.3,6966.4,6260.0,6680.9,8180.1,7684.0,5183.4,9456.0,7575.8,3532.1,15072.4,10479.6,2926.3,6263.1,5507.5,10625.5,7124.0,6960.5,0.0,2017793.4,
93,0.85,18728.2,23098.4,23896.9,23215.8,25655.7,28690.0,29894.2,21766.2,38127.3,20484.1,15782.4,56289.7,34759.1,16654.5,28467.3,28885.5,42601.5,28086.6,19348.1,0.0,1985732.6,
94,0.858,10220.5,14498.2,16307.2,12582.6,12132.3,15383.0,13872.5,10259.0,16404.0,14073.5,5694.4,16125.0,15135.0,6946.9,8648.1,12120.8,14104.1,16285.9,15417.3,0.0,2159432.0,
95,0.909,5178.7,6333.1,7745.3,12825.4,6198.9,7276.2,10401.0,7764.9,8548.9,17155.6,8659.4,10066.5,12589.1,9230.9,6883.3,8956.1,9349.2,13923.5,20880.0,0.0,2233565.7,
96,0.839,16140.4,20415.0,22490.9,21175.9,18048.5,22621.5,24406.3,9394.1,22529.9,15080.9,13832.5,51548.5,19791.5,10051.1,19420.5,51557.8,21244.1,16536.9,16574.7,0.0,2065872.6,
97,0.765,8646.0,10942.8,14349.5,13143.1,11835.7,18218.7,17479.5,10088.3,21887.6,22834.8,23835.5,74634.6,22437.0,7384.9,28326.8,91040.1,15913.9,20832.6,22829.0,0.0,2091982.2,
98,0.794,16053.6,25003.9,26149.1,20873.4,22601.2,27671.8,23039.4,13269.2,21860.5,22456.5,15330.3,102921.5,30137.1,10586.2,32846.8,111546.5,66586.0,22500.2,30201.7,0.0,2132897.5,
99,0.74,14946.3,18417.0,23888.9,23283.8,16758.1,18882.5,21107.8,14090.9,21288.5,17332.9,7016.1,60569.8,18424.1,11880.1,18218.7,38601.1,26516.4,19963.2,24461.0,0.0,2024290.3,
100,0.724,12923.9,18910.0,21972.1,21174.3,15115.1,17654.9,21452.2,15624.5,20748.3,21061.0,25753.4,64058.6,23548.6,15472.1,30328.1,75878.5,38729.3,20154.6,25882.9,0.0,2154217.7,
101,0.854,14423.4,16716.9,19967.1,19054.9,18199.0,22808.0,22751.9,28665.5,32859.2,26783.5,38667.9,116897.9,31633.9,19389.2,67268.2,108232.9,31338.4,23495.9,26045.6,0.0,1878689.7,
102,0.761,11265.2,11328.6,12592.4,10404.6,11332.9,12872.3,11538.2,8804.3,15705.3,17844.7,16496.6,29540.7,24105.2,12756.1,15051.3,24346.3,24507.7,15807.5,11148.0,0.0,2185499.4,
103,0.717,26454.6,31257.3,32217.0,26869.9,29827.3,34744.9,31594.0,24279.1,28036.3,38995.6,20859.5,113503.7,51934.4,21484.0,38839.2,62933.1,133451.3,21242.6,23513.7,0.0,2207985.1,
104,0.744,18812.6,33503.5,41150.4,28227.1,26531.9,41562.9,39582.9,22280.9,33086.3,22628.0,57538.7,184569.4,47473.2,14979.0,91844.8,191842.4,114444.7,18854.3,24194.3,0.0,2130076.2,
105,0.858,21896.0,38952.1,40255.2,28777.7,33696.7,46129.2,39146.8,20843.4,32608.2,25220.3,50588.5,161043.4,37129.5,11951.0,66758.8,211163.6,141234.4,22865.5,21868.3,0.0,2040742.4,
106,0.714,11864.2,14800.5,19026.1,21917.9,14863.6,19009.6,19487.1,20066.8,24651.0,22904.3,41452.3,86091.1,20697.8,12918.0,64361.3,117957.1,25300.2,19458.0,23680.8,0.0,2073462.3,
107,0.774,9053.5,14275.9,20028.1,19944.3,13564.6,17562.6,18319.9,13103.3,21809.4,46524.5,24266.5,85841.4,46880.5,9062.8,32100.3,97797.1,129799.2,22924.3,23220.2,0.0,2335203.2,
108,0.733,19717.6,24087.0,30803.9,33576.3,24689.9,34641.8,38893.0,25773.7,50016.8,26515.3,41253.0,151098.9,55745.2,16685.0,71970.4,165209.6,89362.6,39931.9,35462.4,0.0,2164346.2,
109,0.824,21134.8,28154.8,35986.6,42234.6,24708.9,32926.8,32625.0,20040.5,28294.2,30559.7,22703.4,40448.0,26579.0,17220.9,22125.8,44192.9,26168.6,30017.7,34976.9,0.0,2205794.0,
110,0.774,11616.1,20333.8,23001.3,23161.9,15954.6,23898.1,23171.7,8329.2,14946.3,22487.5,19418.4,54035.3,28588.9,8007.5,23665.1,64241.4,64017.9,18902.0,25295.1,0.0,2221881.1,
111,0.853,14703.6,15573.0,15742.1,17511.3,16325.3,17722.7,18097.8,19942.8,23701.6,32446.4,17898.2,64900.6,40542.6,17257.3,25011.2,41398.6,82917.3,18142.9,21211.2,0.0,1888028.7,
112,0.872,18770.6,23514.3,23497.8,22191.0,23551.1,29607.4,23972.2,23166.4,29979.7,62609.1,40408.8,87324.7,63675.0,19442.3,47447.9,87137.3,113834.9,30443.8,37289.1,0.0,2178793.8,
113,0.853,8714.1,15151.8,20642.3,22321.3,12776.0,15860.4,18904.8,19241.6,27654.9,20846.9,34290.8,158073.5,50752.0,8115.8,84047.2,148829.4,89206.8,22882.6,26970.9,0.0,2214516.3,
114,0.75,11460.8,19388.1,22178.2,15960.5,19879.4,27262.3,23106.3,21373.3,34703.7,59570.4,10031.3,174574.3,117456.5,9277.4,28504.9,51320.2,242503.4,37697.2,26530.3,0.0,2302668.4,
115,0.899,12502.8,18055.4,21199.1,21214.9,16273.3,22126.4,22678.4,10485.9,26991.3,19273.4,6878.8,92987.1,44683.4,9087.9,18948.1,33104.0,32101.4,29509.5,25471.1,0.0,2254780.2,
116,0.83,14170.5,14154.8,17175.0,19900.9,16178.9,17686.1,18565.2,18899.5,28630.5,39874.3,15042.3,65453.7,50386.9,15546.9,26876.1,19895.1,47166.8,35019.2,31508.1,0.0,2304524.9,
117,0.795,15257.8,25664.5,27626.9,24341.8,23420.8,31233.1,31173.3,21126.2,35261.7,31733.2,8971.5,64345.7,46067.7,11606.3,21969.5,25501.6,62375.9,32948.3,26322.4,0.0,2268158.7,
118,0.768,20906.5,19237.7,21672.1,21384.2,21737.1,21941.9,22782.2,24830.3,29155.9,34988.5,18586.3,119031.5,48226.9,19952.4,39901.6,59646.2,81642.3,25313.6,24276.6,0.0,2344842.6,
119,0.683,7084.6,10066.1,15063.8,15623.1,10260.8,13354.9,16071.5,10317.3,20290.4,12582.8,8068.3,30527.9,18839.0,9183.7,12636.1,10500.6,14181.7,16017.6,16944.3,0.0,2228283.5,
120,0.705,12781.5,14961.1,22019.5,26504.2,18408.1,24293.1,26305.9,15695.0,29194.0,34207.5,11797.2,44567.3,38181.6,9643.4,19670.6,19022.1,30052.4,32639.9,38604.1,0.0,2297202.5,
121,0.734,16983.0,17365.7,22017.0,29902.9,15277.4,17244.4,21368.4,17000.9,20089.7,24339.4,21302.2,24724.3,26826.0,21526.0,14939.5,17796.0,17960.7,29692.1,40476.9,0.0,2283202.6,
122,0.733,12258.1,13437.3,15927.0,16467.0,16954.1,20068.0,20152.8,15975.2,20633.8,16286.9,11122.9,21280.9,21163.2,11102.1,17811.9,15015.0,16706.7,21265.4,21729.8,0.0,2409362.1,
123,0.771,8212.7,11390.8,16994.1,21157.4,10893.6,16155.4,21141.4,10960.8,19473.1,20845.1,9432.6,31894.0,28357.4,8371.8,14494.1,14868.1,22866.8,25029.2,28661.4,0.0,2203546.2,
124,0.682,13204.7,15393.9,20298.4,20479.0,16343.4,19515.5,21639.9,15484.8,28533.1,26819.6,8953.3,37015.2,37372.6,11518.8,15574.1,11165.8,27874.4,31430.4,24380.6,0.0,2477674.7,
125,0.935,13252.2,13500.8,14079.7,13928.4,13549.9,12551.2,13374.6,15065.6,21587.6,21881.5,16572.0,47324.4,26356.6,11015.0,26497.1,69353.3,39381.4,18333.7,18501.1,0.0,2537193.7,get 3d
126,1.485,8219.1,9482.6,11184.3,9539.8,8694.7,10458.1,9907.4,9789.3,11956.1,6978.2,8880.1,25548.9,11360.1,7255.7,12598.3,25035.6,14850.3,10333.5,5934.3,0.0,2556912.1,
127,0.758,15105.2,18760.9,18770.4,18704.7,16137.6,17950.8,18092.2,18295.9,21296.6,20714.1,17647.8,43876.8,30376.4,16028.0,20621.4,18529.4,29468.4,26418.1,22200.4,0.0,2621818.8,
128,0.801,9586.7,8684.1,9105.2,15798.5,11843.0,9564.6,10342.7,14649.8,11616.0,20576.9,10929.9,13800.7,15561.6,8332.4,10538.7,10718.5,13662.2,13760.4,20001.1,0.0,2531551.6,
129,0.845,10451.9,13439.5,12784.5,13565.8,11106.8,12464.8,12952.5,11974.0,14477.8,10390.2,8351.6,13642.5,12935.1,9828.0,11103.6,9238.0,9760.1,12477.2,16870.7,0.0,2784864.7,3d second screen stuff 
130,0.897,12210.3,18433.9,22915.4,14795.6,12645.5,17168.2,17237.8,10984.4,14256.3,7451.8,11151.4,19661.5,11559.3,10935.0,11016.8,15565.1,6997.4,13155.1,9939.7,0.0,2568988.2,
131,1.66,16746.3,20742.6,19784.3,20773.0,16684.5,23189.8,22500.4,19716.2,27867.9,27413.9,20139.9,38878.5,31063.3,18938.7,22486.0,25053.9,59092.5,25897.9,23013.4,0.0,3031787.7,
132,0.824,12702.5,21746.7,28762.5,30932.0,29270.4,29247.7,31724.7,35248.1,46689.1,35772.8,23403.4,58800.5,40003.5,15602.9,39266.3,33443.0,26356.4,50956.2,39003.0,0.0,2967785.3,
133,0.918,16259.3,23848.6,26772.6,23552.4,22880.5,26520.4,28143.8,25906.1,28769.9,11500.4,12843.0,36857.6,20677.2,14862.8,23095.6,25147.6,12739.7,30742.4,20190.9,0.0,2979279.8,
134,0.83,8651.3,7110.9,8778.4,13097.2,10151.9,10586.2,11942.0,15317.0,14606.2,16742.7,7133.4,29075.5,16849.5,5798.9,17227.7,13776.3,15244.6,15520.9,18804.1,0.0,2868804.0,
135,0.843,9151.8,13041.8,12959.1,11788.3,10516.4,14516.5,13950.5,8497.7,12261.1,12042.5,10744.0,9863.6,13607.1,8968.7,8669.8,12537.3,11028.9,14903.2,13866.0,0.0,2859555.7,
136,0.95,11983.0,14405.4,14061.6,14966.0,12908.2,16897.4,16482.8,18168.6,25111.1,27232.3,22999.1,60719.9,32523.3,12631.4,33386.7,43668.6,49066.4,19447.4,18165.5,0.0,3022729.3,
137,1.14,11400.5,15219.5,21305.3,18648.0,15278.4,16692.9,19208.8,22232.9,31784.1,16940.3,17335.9,101757.7,36149.3,11314.6,43055.9,74846.8,89229.2,25214.7,17320.7,0.0,2885893.0,start to spin
138,0.713,10872.1,16995.6,17645.7,18083.3,16022.3,21240.5,18594.5,15246.2,28200.9,16781.6,13074.6,113732.5,30906.6,10899.1,27872.0,37183.8,36288.0,20447.4,15855.2,0.0,2803308.7,
139,0.645,6999.6,9077.2,9749.0,6000.2,7842.9,8486.7,6575.5,10544.1,8574.2,9517.8,19733.5,43619.4,13656.3,8148.3,24097.1,42551.8,23161.2,6314.7,4905.7,0.0,2920435.3,
140,0.727,10649.5,14822.0,18089.9,15697.9,12282.3,17148.4,19721.4,13169.3,28254.7,25543.1,25689.7,163994.3,61047.7,9349.6,51168.3,120140.4,88525.6,25289.2,18538.2,0.0,2849336.6,
141,0.982,15138.3,15788.2,18191.8,18495.5,22031.3,24219.4,24792.1,23452.3,39000.8,28072.8,14497.8,108852.4,53467.1,14244.9,34035.9,47642.7,59496.1,30807.3,19037.1,0.0,2617109.2,
142,0.711,7347.2,7796.6,9111.9,8591.3,11286.3,14772.2,11526.5,11240.2,16711.4,13802.6,10212.0,54295.9,22418.1,6720.5,18173.5,34051.2,30593.2,13652.5,10477.2,0.0,2673466.7,
143,0.847,13960.0,20381.1,22396.5,18453.0,20660.1,27816.5,26475.8,19866.6,40037.6,20710.5,21445.4,140658.8,46816.7,11940.2,43831.9,54596.7,50407.2,30459.6,24674.2,0.0,2730129.1,
144,0.783,12726.3,15707.4,20534.4,18409.4,21424.8,21885.7,24169.6,19214.3,37005.3,28726.5,12334.5,83560.1,50607.3,12112.4,27565.2,33126.8,35724.3,35441.5,28310.3,0.0,2500499.4,
145,0.769,13808.8,21560.5,25238.3,21795.1,20374.3,25748.3,26848.7,21065.3,29524.3,18116.5,14822.8,24679.7,23480.7,14214.3,19924.9,19190.3,19258.1,23911.1,20997.2,0.0,2735087.9,
146,0.64,11322.2,11670.0,14366.2,13196.2,11788.6,12883.3,13743.5,10676.2,12248.9,8985.4,10513.8,25067.9,13467.4,9025.0,10381.8,15130.0,14406.9,10567.4,11745.6,0.0,2722171.4,
147,0.817,9785.5,13135.4,14781.4,15574.1,12361.7,14516.2,15209.5,11892.1,25726.5,18991.2,8563.5,76905.5,36579.7,8775.6,16843.0,16787.1,22556.1,20838.0,13169.4,0.0,2670401.9,
148,0.721,8025.7,10847.2,16993.8,16807.9,9695.1,14091.5,15851.6,9572.6,15652.5,18897.0,6681.7,16898.3,21674.0,7079.4,10874.0,9287.9,15705.4,20185.2,22325.8,0.0,2535998.1,
149,0.653,18558.2,21609.9,22170.3,22994.3,21170.7,22238.7,20641.4,15787.4,21369.8,17253.2,10941.7,22264.5,20856.1,15538.3,15183.0,13892.4,18541.5,19291.7,22390.3,0.0,2400102.2,
150,0.664,4969.3,5824.4,7568.9,5321.0,6804.5,8220.1,7988.0,6347.5,10734.1,7066.6,4153.4,10937.4,9478.8,4423.2,6430.0,7756.3,10147.5,8887.1,8915.1,0.0,2497733.4,
151,0.59,6564.3,8764.1,12395.8,10761.0,8130.5,10993.0,9858.1,9637.1,9796.5,12587.3,10045.3,15798.0,13627.3,7540.6,10231.0,12953.6,12054.8,13350.1,15824.2,0.0,2770925.4,
152,0.695,12391.5,16771.8,15922.1,13702.9,16578.6,18826.8,17854.1,20883.1,25999.4,17589.7,17953.8,57376.5,23999.1,19695.1,23598.2,18891.1,16599.3,19338.7,15616.7,0.0,2826914.2,
153,0.793,8647.5,13936.3,17442.9,20681.1,12210.5,16482.3,16545.4,13080.2,17199.4,20721.8,10486.3,24525.9,19314.0,7469.6,14949.8,16373.7,20735.3,20703.5,19804.1,0.0,2838531.1,
154,0.898,27062.1,27546.7,30743.6,32503.5,32528.1,32629.6,33290.3,30725.1,32654.7,30905.1,29082.7,48129.1,39616.8,28011.8,35827.1,33820.7,50565.7,34572.1,30410.0,0.0,3018126.0,
155,0.742,16052.3,21853.4,22821.8,24163.6,19866.5,24255.9,23148.1,17955.1,21694.1,26910.4,13116.3,20616.8,22476.5,10902.5,17541.1,29716.1,17106.6,21654.4,22175.8,0.0,3149362.3,
156,0.658,4733.0,7490.2,9684.0,10146.1,6390.5,7671.2,9761.7,7448.5,9403.5,14453.3,11384.8,84449.4,22442.5,6381.3,25789.0,82065.8,31735.8,11276.8,13863.7,0.0,3220543.2,
157,0.689,15844.0,18988.5,21636.1,17618.3,16647.9,19941.5,19103.1,11725.3,25368.9,18062.6,11481.3,136221.4,40337.8,12151.1,27459.6,77709.5,79155.5,20882.3,18955.9,0.0,3062642.0,
158,0.672,18575.6,20810.0,23081.6,21383.2,23307.5,29346.4,25324.7,26825.1,34891.7,27492.9,17966.9,123596.0,51008.9,16718.6,47578.1,51595.2,52878.3,31834.8,24304.1,0.0,3032646.0,
159,0.636,20856.4,33900.2,35465.2,32694.6,30785.5,35930.7,40356.0,25404.8,39315.8,30894.4,16552.4,107823.5,58094.3,14675.9,41555.9,42137.1,60941.2,35894.8,33194.6,0.0,3420591.2,
160,0.715,36013.3,43763.5,46965.1,26587.5,40068.9,47572.8,41528.3,32087.2,46631.3,60548.4,20352.9,150042.7,79413.0,24022.1,38928.7,101867.0,233295.3,32684.6,23313.7,0.0,3015422.9,
161,0.711,14638.1,15595.7,13799.4,17861.2,15280.4,13472.5,14354.0,19260.0,28189.3,21140.6,21229.1,171814.2,59870.8,13060.9,61416.0,69019.2,70270.3,25250.6,18542.5,0.0,3222900.9,
162,0.663,14834.7,20115.3,22462.6,19405.4,21126.9,27325.5,27652.9,24347.0,34548.6,18801.9,32674.2,118744.8,36494.9,18476.4,61196.5,76439.0,31096.9,26916.9,18387.7,0.0,3122165.3,
163,1214.918,5769546.6,12485803.2,1939517.2,91487.1,80467.5,35420.6,44426.2,17607.3,32854.5,54220.7,31484.9,91492.6,57314.8,136068.7,44751.0,124316.6,139616.1,39577.6,54846.5,0.0,3098753.2,FRUITION-CALC
164,10.247,30512.6,68573.4,83728.1,65227.7,40951.5,53595.4,63170.8,31797.5,40290.0,36630.5,23919.5,36283.6,43903.6,29383.5,27863.1,25083.9,30867.1,48174.7,47012.4,0.0,2891919.8,
165,3.24,14736.5,16514.3,18232.5,15409.2,15757.9,17536.6,19331.0,15715.6,18405.8,22060.3,37255.3,38207.3,22674.3,14264.5,33976.2,111688.7,20829.7,23371.8,21241.3,0.0,2979048.4,
166,0.845,21358.2,29347.4,28722.3,43306.7,28066.7,33910.5,41728.1,24883.0,55548.8,99573.3,35393.3,154552.8,119103.0,14064.2,56480.8,126754.7,222262.0,71041.5,57597.8,0.0,2602073.7,
167,1.868,17861.7,20226.7,23540.6,23873.8,20830.9,24397.4,28548.7,24832.4,40896.0,25972.7,38905.6,81830.8,33458.1,17828.1,56056.5,122551.8,46886.4,37037.4,33066.5,0.0,2581348.0,
168,3.074,14792.4,15693.2,14289.1,7345.9,17074.8,18298.9,14175.6,17905.7,23412.5,13643.0,20368.6,100327.0,24481.7,14688.0,47391.4,94228.4,75350.2,12296.2,9916.8,0.0,2567796.4,
169,3.687,11856.6,15694.8,21426.7,23068.9,22027.8,27171.6,29106.9,27746.5,44036.7,1622965.7,24471.7,187521.3,102870.0,15058.2,58001.7,72360.6,176368.6,40794.0,31744.1,0.0,2507548.6,
170,5.504,18825.6,19080.6,17190.2,14831.8,21573.3,22599.1,20824.9,26109.8,28287.4,54770.8,43060.5,225680.5,105881.7,18332.1,80453.7,135262.4,189315.6,28708.5,22158.3,0.0,2621432.8,fruition  
171,2.776,8625.3,11082.2,13733.0,11552.0,12367.8,15673.1,16059.6,12379.4,29118.3,35515.0,8222.8,102277.4,52209.4,8507.7,17036.5,27236.3,121244.0,19499.1,15794.1,0.0,2585180.7,
172,0.746,16271.0,19087.9,20690.9,16874.0,20567.7,24609.3,24575.6,22401.3,26541.6,23790.8,20876.8,106109.2,38472.1,13926.0,34616.9,62950.3,116751.3,21814.2,15644.7,0.0,2404303.4,
173,1.992,28852.0,41872.5,39606.6,29783.2,36389.6,42412.4,39489.6,18147.1,31555.6,24865.5,9894.8,55057.4,34441.6,12199.0,14905.5,53982.8,80363.3,30167.2,20525.7,0.0,2627705.9,red dot
174,0.684,7422.8,11523.3,18641.0,22969.4,13784.9,18161.6,24490.0,15375.3,23132.6,17042.5,31405.1,103644.3,24142.8,11033.6,49954.5,117328.8,37154.8,25607.6,24174.6,0.0,2496736.2,
175,0.731,15613.2,19180.1,21282.4,18862.4,21152.4,23515.2,20242.8,25551.3,25500.8,6186.1,25911.2,122512.9,22745.2,14526.8,55658.2,111323.7,44502.0,12109.4,11718.6,0.0,2641682.0,
176,0.583,28036.9,27582.4,28538.7,24220.3,45230.7,45774.4,40587.3,66383.1,96060.3,34432.3,42163.6,345569.7,118442.8,28254.7,127804.2,130599.1,143347.3,52654.5,32183.3,0.0,2557248.9,
177,0.769,25437.3,30713.6,39498.7,40517.2,35059.0,43432.8,47335.8,44091.2,68989.7,34323.9,22046.3,204581.4,78823.5,21525.9,65357.1,60567.5,50605.2,56881.1,35762.4,0.0,2351150.7,
178,0.626,11864.1,19836.9,24426.6,21196.3,21466.2,26411.6,28231.3,19058.0,34267.8,29570.7,15764.3,71787.5,44319.2,10976.9,27469.0,37383.0,45663.5,30120.8,21547.5,0.0,2421185.4,
179,0.687,14742.3,21933.2,21770.3,16010.6,18680.4,21390.0,22505.3,21378.0,21865.5,19626.9,28829.3,137182.1,38966.1,14623.6,54686.9,116345.8,85371.8,15937.2,16695.8,0.0,2397203.9,
180,0.65,9078.8,11644.9,15047.5,14799.5,14962.9,17725.8,21509.2,21305.9,44212.8,21473.9,12538.5,197231.8,79484.4,8840.4,40341.2,41787.9,103833.7,35666.5,13753.2,0.0,2401700.8,
181,0.623,15054.5,21979.3,30952.5,20783.1,22547.0,33499.4,36009.1,16417.2,48635.7,36922.4,18773.2,296519.6,118907.0,11576.4,59784.7,96069.3,210062.2,43464.9,17852.4,0.0,2653547.5,
182,0.672,11491.7,14200.5,17236.3,16699.4,15347.5,17846.0,19099.5,15252.1,32917.6,32200.1,13770.2,201159.5,70148.8,8267.9,49088.5,91319.3,134847.1,26836.6,17978.4,0.0,2668619.7,
183,0.676,3610.3,3651.9,5469.9,8396.9,3998.8,6265.4,8223.4,11759.1,20732.7,33104.2,15640.0,185993.3,85019.9,7131.4,40023.1,61874.4,153123.0,20332.2,10946.4,0.0,2644287.0,
184,0.621,12719.4,11461.2,14345.5,15563.5,13781.0,17666.9,19101.9,18379.9,24455.5,27742.8,22334.3,130830.9,45011.5,12913.3,37975.0,88128.9,117726.4,18248.3,13263.5,0.0,2776460.8,
185,0.902,20711.8,25786.0,25608.2,20981.0,23237.3,25297.7,25166.5,15142.1,26900.3,17607.3,23143.5,78954.7,30669.1,15642.7,31845.2,66660.7,77706.4,23371.5,16781.3,0.0,2609538.1,
186,0.652,22122.5,29503.8,40494.6,46688.6,29789.0,38804.1,48511.7,27793.7,52356.8,32271.4,19425.4,121209.5,60676.3,18543.2,44223.4,76855.6,39220.0,57618.5,49002.5,0.0,2560669.2,
187,0.64,14251.1,25925.4,29097.1,25652.5,23894.2,32283.5,29556.0,16637.5,29002.7,21527.7,15356.1,125401.2,42378.4,6950.7,35130.6,74816.5,118619.2,20380.5,21855.8,0.0,2671119.1,
188,0.733,12905.2,20250.9,21415.4,10916.7,18685.3,23623.0,21065.1,16798.8,32961.6,41056.9,17334.3,224828.0,71884.3,9356.5,51361.7,97936.6,170399.0,21659.4,11669.8,0.0,2624350.5,
189,0.639,16505.9,22349.3,25289.7,27946.8,17192.9,24963.5,25155.8,17206.9,24739.3,32987.6,17637.1,85609.9,32907.9,11880.2,23435.6,47093.1,53185.8,23703.6,36079.0,0.0,2530138.5,
190,0.585,20104.1,20032.8,18060.2,17756.4,20154.7,22203.2,18897.3,21375.3,21749.7,25034.7,23938.7,42279.1,22388.0,23612.3,33817.6,58378.0,33106.0,21420.8,28103.9,0.0,2556666.8,
191,0.528,7128.6,10618.8,13241.3,11198.7,9902.8,15346.9,16000.9,9566.6,14262.0,10962.4,16450.9,47973.3,20349.9,7089.0,28212.5,45613.0,6933.6,20198.7,16033.3,0.0,2804707.0,
192,0.545,8172.2,10270.5,11883.8,8999.6,9193.6,11104.7,9801.3,8272.9,8501.3,16152.7,13711.5,20021.4,12890.2,8884.8,16819.9,25622.4,16604.8,8579.7,12018.9,0.0,2732603.9,
193,0.621,9874.5,13929.7,16184.7,13298.6,12762.4,16157.1,15661.8,9707.8,19195.0,17743.0,10334.2,96037.3,29386.6,9029.0,30591.5,70157.2,26482.0,16661.2,15025.2,0.0,2927913.9,
194,0.615,12729.4,17963.0,14916.4,10661.5,13937.7,16696.2,15179.3,9889.6,12763.6,10386.4,10654.8,21065.5,9896.4,11154.2,10121.4,9276.1,14774.0,11449.7,17146.1,0.0,2933099.3,
195,1.004,15699.6,20156.1,23375.7,27336.1,19860.9,25427.3,25891.1,18278.6,25829.9,29262.6,16707.9,60739.3,34080.2,12341.5,23137.2,28447.1,39184.1,26725.2,33627.8,0.0,3121695.0,
196,0.716,15503.2,17372.8,28277.2,32642.6,23600.4,30269.3,31236.2,24921.7,36437.9,43642.3,21053.8,109791.5,47099.0,18209.9,38307.1,57232.9,67311.2,35404.3,44760.0,0.0,3241416.0,
197,0.525,11710.8,13213.7,13353.3,16238.8,17423.5,18911.6,17686.7,23787.6,32297.5,23922.1,16879.2,96305.6,33133.3,13337.6,38959.4,47845.6,52774.3,21169.6,19342.5,0.0,3067548.4,
198,0.622,12069.7,13993.3,14411.3,14978.7,16171.6,17720.7,16818.6,15829.7,25088.8,21942.3,15082.1,57268.9,28947.5,11978.4,23114.2,25014.4,33089.8,19250.7,18842.7,0.0,3349978.5,
199,0.546,13815.7,16617.8,17924.4,15525.8,19241.6,19891.5,18876.3,22403.1,26540.9,19419.1,9761.5,33578.2,25840.4,12710.5,21068.4,19204.1,22585.0,19603.5,20547.4,0.0,3475803.7,
200,0.552,17721.6,21972.4,24787.9,26203.4,19883.3,25300.1,27517.4,20480.4,31472.9,31313.4,32343.2,119104.3,47831.0,21969.3,50429.8,110707.2,80749.1,33051.0,25042.3,0.0,3903613.3,
201,0.848,22558.2,28781.8,33455.6,24056.9,30038.4,34172.2,32126.9,36357.9,46198.2,26929.7,54259.8,169546.4,49765.6,24852.4,100795.6,172499.4,54581.5,30864.5,19465.0,0.0,3983044.7,
202,0.563,16551.2,17995.5,19303.5,19126.3,19787.9,21364.0,20378.1,13973.6,22130.4,53459.3,22072.9,48907.3,41571.8,11021.0,28125.3,51009.1,102195.0,21446.8,28619.2,0.0,4053052.6,
203,0.538,8115.8,10146.0,9244.9,6810.5,11839.3,12402.0,10181.3,12444.8,23774.5,69808.4,20118.8,192684.4,93060.6,9220.9,43413.3,88987.2,264062.3,15984.9,20950.1,0.0,4375648.8,
204,0.57,17476.8,23552.2,30267.5,27478.8,22913.7,33571.6,34725.7,20947.2,38486.6,32782.3,24690.1,136379.2,72947.2,16998.8,49174.4,59840.2,62612.1,42782.4,25401.8,0.0,4869499.4,
205,0.526,9086.2,11242.3,13070.8,14339.1,9813.0,13029.5,13092.7,9992.8,15828.6,45059.6,21816.5,78012.1,60554.4,7894.7,36775.4,87423.4,95727.5,21147.1,20785.4,0.0,4788071.5,
206,0.644,13155.3,19843.3,25438.5,23909.9,14650.6,21467.5,22167.9,10791.0,26169.7,67717.2,19657.6,87552.3,81131.3,10171.8,28346.4,66781.9,144707.1,37314.4,29865.9,0.0,4773208.2,
207,0.559,19311.3,23723.6,27334.2,26039.1,25805.2,33200.0,29146.6,18630.5,33494.6,41545.0,22402.1,42271.9,45290.0,17841.5,20933.4,58164.3,56840.6,35398.7,29593.5,0.0,4834325.3,
208,0.555,16994.1,24714.3,31022.4,22919.6,22600.3,32773.0,32927.2,13486.5,40385.3,33911.8,7214.0,89837.1,52852.7,9355.7,14711.5,14725.3,64591.4,32094.1,32808.8,0.0,4691630.2,
209,0.575,12879.7,15278.5,16839.1,11680.4,18099.4,17666.4,16588.2,25332.3,34636.9,8588.7,12402.4,94833.8,26564.4,11150.4,37697.8,28549.5,18985.0,18622.6,11997.0,0.0,4732580.9,
210,0.593,18135.1,23086.6,22869.8,22273.9,21207.0,24786.6,21602.0,18945.2,21546.6,22290.4,21730.3,17154.0,20019.5,19115.6,20036.3,21897.5,20430.1,21169.6,24306.3,0.0,4419175.2,
211,0.488,12324.9,16382.4,18663.3,16752.1,18571.2,19253.1,21596.9,19729.2,19354.4,13959.8,11289.6,18920.7,14888.4,13374.8,18853.7,16660.4,14369.2,15709.1,16340.5,0.0,4376422.7,
212,0.526,10208.1,11670.4,13007.4,14076.7,11998.7,13767.1,15317.9,13782.8,19954.0,15287.7,14274.3,91886.3,37054.7,11344.0,27710.8,34275.6,40165.7,20303.3,14357.6,0.0,3920194.2,
213,0.503,14351.8,27831.2,39218.5,32164.3,28457.1,41053.1,40950.6,28416.8,56227.0,31201.6,25647.0,118865.9,48482.7,13143.3,56669.0,87253.1,50720.6,39533.3,31846.5,0.0,3531575.7,
214,0.631,26349.2,32114.3,35317.7,36087.1,34563.6,41479.7,40324.9,36186.8,48469.9,26113.6,29908.1,86834.9,42155.5,21696.5,46504.8,90473.9,96440.1,38454.0,32122.9,0.0,3532534.5,
215,0.656,29294.6,39870.2,45191.1,39342.8,40795.7,47323.8,46681.5,29417.1,41675.5,12980.8,27164.6,107746.3,26370.6,21185.2,43379.0,99013.2,31890.9,29472.4,23622.0,0.0,3574540.6,
216,0.736,26398.6,36802.6,44437.1,35012.5,35778.2,45975.6,47138.0,39084.2,60791.2,28891.3,63890.4,259927.9,82789.4,23475.7,123936.2,210601.2,158704.6,42751.4,30290.7,0.0,2983964.0,
217,0.611,6300.5,7404.9,10325.4,11433.8,10732.4,12829.1,15717.9,19875.0,23912.4,17889.1,18090.4,69854.3,17386.0,7989.1,47461.5,50082.9,42666.1,12591.7,12867.5,0.0,3023226.1,smaller dot + bigger space
218,0.585,14904.7,15358.4,16000.6,15074.1,16909.5,19761.5,16392.5,22549.1,28849.3,10349.6,23131.0,60209.5,14724.4,15240.5,56010.9,99737.8,14975.3,16157.7,16045.5,0.0,3025794.8,
219,0.567,15019.0,15314.3,14451.0,12617.1,20802.9,22894.4,19258.5,22860.8,24101.7,14110.9,21071.7,51987.6,21541.4,17168.6,29648.3,51886.6,22209.2,23143.9,11259.2,0.0,3062867.5,
220,0.535,13734.2,15273.5,14068.8,12153.0,14131.4,15399.4,15597.6,14573.8,19532.8,16740.4,8393.3,31893.7,24122.5,11970.6,12384.3,11727.6,27701.6,17216.2,18230.1,0.0,3301718.8,
221,0.548,15274.4,20185.6,21813.4,23465.4,22816.4,26408.8,28440.3,23927.8,44766.3,21393.2,18734.1,77616.2,33612.0,14775.6,29370.3,29829.2,47121.3,28930.8,29399.1,0.0,3363602.5,
222,0.547,11406.2,16097.0,16833.9,15240.1,16472.8,18470.0,16641.7,19514.0,30689.4,17763.9,11185.6,103778.2,37352.7,8522.3,30807.0,34488.7,54045.3,23079.3,17394.0,0.0,3390108.1,
223,0.629,17664.3,22497.9,21814.2,18219.4,22094.4,24653.6,22834.7,17705.9,28440.2,19447.4,32399.5,128992.7,27317.4,13004.4,58427.4,135910.0,97943.5,13564.8,13496.1,0.0,3493880.8,
224,0.737,9502.7,10752.1,11914.9,10589.6,11583.5,14040.9,12561.3,11904.5,18284.9,15820.3,13174.5,56471.4,22121.8,9264.8,15015.7,28382.2,36469.3,13469.3,13121.8,0.0,3521451.7,
225,0.59,15827.8,15564.0,16567.3,15995.2,21409.8,22433.4,21418.8,34501.1,47250.5,30548.4,49597.6,266964.7,96080.7,18662.4,107219.2,193806.3,169211.9,32275.3,16792.6,0.0,3687246.1,
226,0.592,17369.3,25335.0,30210.0,27070.3,26212.9,33807.3,35894.9,23211.3,46884.6,27576.6,29714.1,135840.0,43269.6,16609.0,53647.2,111933.5,87725.4,35915.4,29498.9,0.0,3598338.8,
227,0.551,21017.1,24003.6,26411.8,19280.5,24936.7,31838.1,29782.7,17853.1,34908.4,19747.3,18054.9,80451.4,23912.9,15906.3,37332.3,88780.7,97893.5,23431.7,14396.8,0.0,3686397.0,
228,0.52,23603.0,26386.6,27369.4,21821.5,27462.7,30910.2,26946.0,26482.9,40763.7,20595.2,9934.1,148313.4,46067.1,16152.0,44012.4,74364.5,80157.4,27901.8,19443.6,0.0,3821390.4,
229,0.518,14755.6,22630.6,29824.2,26884.6,24774.8,35047.3,36179.8,25916.7,61903.7,53676.7,12208.2,291061.2,128953.4,9694.4,52433.3,74640.8,220449.9,48636.5,26849.5,0.0,3735822.2,
230,0.568,16530.6,17228.4,20358.9,20811.6,18630.5,19808.8,22612.7,19173.1,32738.0,39071.2,20500.3,196158.9,78332.2,12366.4,55305.1,104394.9,146473.1,32152.9,21806.8,0.0,3753276.6,
231,0.463,12362.6,22225.6,26183.0,18569.2,17177.0,28324.7,24667.8,9107.1,24258.3,35667.9,11076.4,125685.7,58989.3,6326.8,32360.5,66973.3,116709.9,25979.7,24545.4,0.0,3611421.3,
232,0.506,15506.7,21145.6,26669.3,18837.0,23303.1,31495.6,28318.1,17198.1,42200.7,25679.8,22497.7,158695.4,46901.8,9873.6,52254.6,121512.7,89498.9,22322.9,12292.0,0.0,3699706.5,
233,0.489,17938.5,21177.0,29415.5,24400.3,23233.3,32175.0,30428.3,23147.3,35036.6,16933.6,15287.8,82000.7,21674.0,13891.1,36434.1,44253.0,34473.1,20420.7,13462.9,0.0,3542742.9,
234,0.518,15327.5,18253.0,17397.8,15625.7,15473.2,19613.4,19243.4,12760.4,24024.0,21597.0,9625.2,120663.0,54424.5,10850.2,28640.3,60688.9,141151.3,16007.5,13959.3,0.0,3478827.0,
235,0.475,15528.0,20274.2,24776.0,25178.2,22404.1,29030.1,33200.3,16601.9,44054.1,49107.3,20385.2,138070.6,81444.0,11896.4,29792.5,77631.4,124925.5,40821.8,32655.6,0.0,3392367.2,
236,0.484,7103.0,11274.2,15535.9,14409.7,9988.8,15777.9,15804.0,8454.8,27935.5,43114.7,9440.1,78093.6,71137.5,5143.4,10823.3,12813.6,87224.1,22093.4,26412.1,0.0,3402787.2,
237,0.467,13070.7,17394.0,14066.1,13725.8,18781.4,22011.3,17250.0,23268.4,33560.9,37410.3,26602.6,179573.9,69478.2,12739.1,50880.0,74540.0,148472.5,25409.4,23741.5,0.0,3318093.7,
238,0.507,24528.5,31120.1,34836.4,25066.8,32150.7,43138.7,39747.8,22354.9,51344.2,39910.4,16276.5,128949.3,64011.8,16011.8,41089.4,95293.0,132524.7,36898.2,24887.7,0.0,3481493.0,
239,0.695,30135.8,37300.8,40424.1,44319.6,40050.9,47370.3,49053.5,45178.5,56330.0,85597.9,49228.9,336591.0,164576.1,36271.8,104163.5,143545.2,304707.5,62480.8,61822.1,0.0,3242140.9,
240,0.578,15947.6,19048.0,24755.3,19247.5,20372.2,22260.4,23328.3,20321.4,31939.9,45038.7,25061.9,144022.6,83635.3,15943.1,51515.1,86220.7,148365.6,36552.4,21483.3,0.0,3641059.8,
241,0.506,19432.1,21787.9,26495.5,24341.1,25801.5,30105.4,28430.1,25593.1,33763.5,20620.4,17076.5,38194.7,19646.7,16068.4,29426.0,28445.1,21295.1,24688.4,24931.2,0.0,3492480.3,
242,0.454,7467.4,8764.2,7841.0,9386.5,6076.8,6803.9,6919.3,7272.1,9199.2,11442.2,9884.8,50144.7,13727.3,8602.4,18911.4,22653.2,22355.6,8589.9,13496.5,0.0,3396983.2,
243,0.48,16709.1,16757.1,20229.0,15884.6,17285.6,22050.2,21628.9,21221.8,27408.4,18738.8,21748.4,99116.6,32558.1,19514.9,43593.3,55377.3,31512.3,21756.7,20454.0,0.0,3498282.8,
244,0.462,13281.6,13434.4,16260.4,16601.6,14899.8,17441.6,18486.8,17223.4,24766.3,16359.0,13498.8,61914.4,27330.2,11943.9,19968.3,22071.4,18612.1,21218.3,19583.2,0.0,3417133.7,
245,0.481,26350.5,31754.1,35469.5,29589.3,28660.6,36029.7,35795.4,15560.7,24525.5,33884.8,11855.6,45151.7,27389.5,16428.9,23463.4,70212.7,39957.1,29946.9,33027.4,0.0,3431986.7,
246,0.528,19474.6,16851.7,16003.5,24735.0,17229.8,19295.2,17261.2,19239.6,24460.1,30146.8,22293.2,82932.8,31539.4,21744.2,28436.8,47568.1,31272.6,23711.8,39284.2,0.0,3602085.5,
247,0.517,19263.2,20896.8,22311.9,15739.6,17734.4,21983.0,21610.3,18649.8,23327.6,12215.6,13660.2,34502.7,16741.8,15232.8,26174.3,18258.7,11547.3,19181.7,13715.9,0.0,3763375.1,
248,0.454,30115.4,34642.9,40611.8,38884.6,33435.9,39876.8,41878.2,37923.2,43372.8,48148.5,24004.2,49764.9,52397.8,26406.7,35737.7,26328.4,39224.6,47660.6,48457.4,0.0,3873782.6,
249,0.505,7509.8,11314.2,14616.7,15952.6,11395.8,17008.5,18071.0,7500.5,17781.3,16751.0,6327.8,21454.8,18440.6,6989.0,8579.3,11388.8,15480.5,19696.7,18282.2,0.0,3857701.0,
250,0.494,11715.7,17678.0,20943.8,23061.7,18832.9,24792.3,24699.3,19475.9,27942.8,22272.8,17483.8,24090.1,22871.3,12819.0,22874.9,23966.4,20287.6,23446.2,22065.4,0.0,4109641.1,
251,0.403,3576.8,5617.1,7019.3,7037.2,5772.3,6679.2,7692.9,7465.5,8971.1,15859.1,8906.3,18103.9,19661.9,5130.8,13036.2,11692.1,19851.8,13207.6,16161.7,0.0,4001654.6,
252,0.425,9296.7,11592.1,17431.8,19078.3,14511.1,18380.1,19223.4,14813.3,19335.8,29096.5,11099.4,55722.6,36057.8,12417.7,12827.2,9920.9,46232.2,22911.0,30702.9,0.0,4033255.9,
253,0.441,7808.8,10979.2,13364.2,12945.9,11567.8,15205.6,16053.3,10041.9,17065.5,18704.3,7702.0,64184.8,33250.6,7039.9,9949.5,10447.9,46826.9,19508.7,19192.2,0.0,4095066.5,
254,0.539,6339.8,6806.1,9020.4,11422.8,7877.6,9025.5,10141.1,14531.5,16979.6,19946.5,18062.5,72294.2,31277.1,8272.1,29385.4,26390.2,39270.9,15709.0,15950.7,0.0,3874077.4,
255,0.438,5074.8,6800.6,9034.6,6994.2,6847.0,10264.6,11013.1,5640.1,15382.0,25425.7,13242.7,111587.1,41391.8,6604.4,18676.9,40903.7,85133.7,14036.1,13098.8,0.0,3905378.1,
256,0.478,7396.3,7440.0,7277.8,9780.1,7902.8,9114.5,8955.8,12327.9,12530.0,23402.4,33034.7,44931.3,24509.4,16371.3,32222.0,64591.4,33753.1,13607.7,25925.1,0.0,3784155.0,
257,0.483,15558.7,17760.3,19549.5,20582.2,15321.8,16962.5,17194.0,13874.4,16401.0,47706.9,14375.2,58579.4,40036.5,14485.3,17950.3,42210.5,64753.7,24054.8,36570.3,0.0,3823063.1,
258,0.492,9067.8,15197.9,20494.6,19870.7,13180.0,16937.3,19962.1,12811.0,20865.8,22141.4,21448.7,45890.0,24066.7,12320.7,25353.6,38568.2,23627.4,22099.1,20682.1,0.0,3957695.1,
259,0.453,9113.0,14092.3,19138.6,22848.5,16294.5,19283.6,19727.9,18253.0,26752.0,16817.6,11797.8,83267.1,28820.7,12637.1,20861.2,19573.5,36369.0,23712.2,17991.3,0.0,3846562.6,
260,0.464,11289.5,12456.2,13195.8,12598.0,14397.1,16559.2,14802.0,14925.2,23801.6,18064.8,12843.2,70439.4,33781.1,11677.4,23756.2,35611.2,46936.8,21462.5,17485.6,0.0,3768797.5,
261,0.414,14709.7,19147.1,22758.6,20435.5,19823.1,22956.0,21426.8,18904.3,18631.3,17034.1,10800.3,22552.4,13136.0,15602.9,13112.4,21351.6,14604.6,18412.4,22021.8,0.0,3750132.6,
262,0.47,33160.9,47778.3,57862.8,45147.9,39067.6,56230.1,59077.5,16837.8,32754.3,25175.6,12621.1,61243.0,21062.4,21056.8,25669.5,74463.9,50654.4,37929.9,32980.7,0.0,4031969.4,
263,0.506,13118.6,18018.9,21879.8,15753.4,19621.9,22129.5,21580.9,18839.3,30232.0,29836.1,12045.8,50696.9,30269.9,11326.7,16503.8,36102.6,129393.2,19890.2,15398.7,0.0,3613982.7,
264,0.429,12831.8,17780.1,20995.7,15501.8,19597.4,22006.9,23607.6,17103.8,32450.9,13767.0,10928.2,85689.2,28694.5,12107.8,30854.7,48634.8,30806.0,19624.1,11678.1,0.0,3621428.3,
265,0.483,16091.3,25607.9,31650.8,32023.9,25466.8,31214.9,31533.2,20933.9,33747.5,35211.0,14739.6,50963.6,42418.0,15785.5,25006.0,26804.1,51621.3,32992.0,37411.8,0.0,3735820.7,
266,0.418,11606.0,13264.4,14317.1,18641.0,11418.1,14083.6,15654.0,14469.1,18229.2,22515.0,13253.9,21355.7,23637.3,11570.6,19456.6,22413.4,24206.6,20989.3,27069.2,0.0,3981626.3,
267,0.478,15080.9,22401.4,28237.7,32631.4,24510.1,30589.1,32137.4,23838.4,39870.0,31319.0,24639.9,108144.1,47118.6,15128.6,41386.6,91162.2,69532.4,34989.1,37178.6,0.0,3584687.2,
268,0.458,9106.0,10541.5,12803.5,16537.1,10616.2,13126.0,12956.9,10326.1,13946.1,18457.0,13667.1,75919.8,22669.9,10906.0,19434.6,30004.9,56310.9,13071.5,23531.4,0.0,3651426.2,
269,0.459,20321.7,21783.2,21803.8,23193.2,30875.0,30599.9,29188.8,44557.4,64854.1,38629.1,21559.8,172008.6,69844.7,23874.7,63565.8,50133.6,53903.9,44261.8,35092.5,0.0,3553267.7,
270,0.445,14048.1,17181.1,19023.0,18921.5,17037.3,22088.5,20555.8,22015.8,32515.1,29740.6,38807.6,172668.2,44776.2,14022.0,75082.2,140338.5,86749.9,21889.1,21232.5,0.0,3746096.0,
271,0.441,13057.0,15685.7,21447.8,18444.8,16838.9,21652.3,21686.7,11340.7,24334.7,14168.9,14312.2,108082.2,23071.7,8300.8,54705.3,72197.4,30019.4,17687.9,17779.1,0.0,3666734.0,
272,0.429,10939.2,12782.2,15012.9,15762.0,17654.6,20752.0,20121.1,18585.8,44212.7,40755.5,15099.9,164502.5,82441.8,7561.9,28508.9,55545.8,110259.8,34140.6,25062.7,0.0,3520429.7,
273,0.439,15125.0,15238.5,15022.3,11293.9,17648.6,19771.6,18656.0,16987.0,29258.2,38744.8,19934.6,151240.8,74320.4,10397.1,43137.0,107845.6,172670.6,26666.1,14870.8,0.0,3933225.5,
274,0.562,10950.1,12199.2,13899.6,13378.3,15924.8,16863.2,16692.7,18401.3,23167.5,31390.1,33365.5,84693.7,45100.9,14742.1,40715.2,81725.0,74671.9,19894.7,16876.4,0.0,3857112.7,
275,0.456,16414.7,25209.6,26483.7,23356.3,22270.2,28245.5,27374.9,18502.1,22254.5,15682.1,24498.8,49355.5,20490.5,14610.3,33244.3,104372.8,41670.1,22233.8,23052.8,0.0,3890211.9,
276,0.455,13224.0,16753.0,20732.9,19548.7,18268.8,22842.3,22555.9,20792.8,30798.1,17010.2,14348.3,90321.9,25143.2,12257.2,34502.4,53863.2,59542.4,19518.9,17346.9,0.0,4074380.6,
277,0.39,7734.4,7844.9,11591.2,9313.9,9187.3,12152.1,10367.3,9015.2,15479.1,14366.8,9621.8,32865.6,18175.2,6283.9,12763.7,31206.8,41181.3,11935.7,9812.4,0.0,3756926.4,
278,0.593,13142.5,16004.9,20833.2,21610.5,17497.0,21125.1,23186.5,18659.7,24956.9,38882.9,36051.4,102951.8,43526.2,14086.4,67114.4,126691.9,85132.6,22192.5,22250.1,0.0,3803027.9,
279,0.49,16021.9,24991.9,33610.1,22962.3,24593.5,36495.3,33752.3,31800.7,52602.9,19202.5,32833.4,167254.9,54022.9,15120.0,78848.0,115954.0,61376.3,38595.8,19331.5,0.0,3851637.9,
280,0.457,10373.0,10930.7,13793.8,11240.6,13446.7,15395.6,16314.6,18175.4,29970.8,12071.3,8770.6,115846.1,40818.5,8897.1,35824.0,19967.6,19110.3,24549.4,9338.1,0.0,3834828.6,
281,0.479,25175.2,27632.0,28553.9,29756.4,28744.3,32273.0,33525.6,24315.4,33103.9,38286.8,20264.0,64639.5,46412.9,23992.2,29221.9,39110.1,51928.8,40450.9,35804.9,0.0,3831818.5,
282,0.579,23839.1,31537.6,30689.3,24927.6,28400.8,33048.6,31370.3,23305.1,30917.0,40371.4,22994.4,47189.0,40406.0,20650.1,26700.8,46564.2,48773.4,31067.4,32609.3,0.0,3925569.0,
283,7.916,9402.3,20847.4,23055.3,14271.6,12081.9,16734.8,17409.0,10280.3,22833.0,20102.0,14917.6,40038.6,22694.5,6812.5,13305.9,52700.7,40667.2,22014.1,13137.5,0.0,3746670.9,
284,1.65,12157.9,15745.0,20428.2,26152.8,14332.0,18205.5,21613.4,12914.1,18538.4,25476.6,22367.7,58831.4,28096.0,11292.3,32316.7,129196.7,59025.1,24884.3,24143.6,0.0,3884889.3,
285,0.58,7824.0,14473.8,22645.6,28883.3,15829.5,21428.5,24062.3,14784.8,21084.3,23308.6,10026.4,20206.8,22851.3,8032.0,16864.0,18106.1,21776.4,26345.0,27678.7,0.0,3881499.9,
286,0.934,18344.3,22033.1,17075.6,12333.0,20732.1,20154.9,17889.2,15595.3,22259.7,5678.2,8705.5,17535.5,9910.0,13442.5,8802.2,25627.8,29567.8,10980.7,9841.8,0.0,3669158.8,
287,1.152,15116.1,19860.6,22138.4,18164.7,17435.5,22145.6,22735.4,12615.3,19606.7,25685.9,13016.2,75251.4,36643.1,7059.9,28799.5,86853.0,109603.6,14936.1,14917.3,0.0,3775980.6,
288,266.198,367274.8,288316.9,68171.3,97774.8,28638.3,33951.3,34606.8,15182.9,32074.0,21844.9,40685.9,99858.3,29073.8,31559.4,45507.9,186114.2,154913.1,18094.6,9696.1,0.0,3845690.4,FRUITION-CALC
289,40.314,22045.7,50211.7,39038.8,23260.6,18210.9,24976.3,22695.5,10139.3,11744.8,6156.1,17556.8,18213.5,5838.9,18278.8,14097.6,51109.6,48791.4,11882.6,14774.9,0.0,3712572.8,
290,0.945,27675.5,35710.4,29388.9,20567.0,29681.8,34164.5,28686.6,22940.2,29232.5,17263.8,9318.9,75304.3,29961.8,14494.2,31961.9,63492.5,87792.9,19592.6,15968.2,0.0,3515503.1,
291,0.73,15331.6,18819.1,24337.8,26687.3,21296.5,25643.0,30904.9,15284.0,26670.3,34338.7,22846.8,55291.3,36842.3,12221.2,31277.0,98364.1,126179.9,23881.0,25048.1,0.0,3317015.2,
292,0.526,8621.9,14356.6,20559.2,22313.8,16543.3,21176.4,25074.6,16590.7,29173.2,53198.9,41017.7,32617.1,41940.5,11930.2,40323.8,110405.1,111971.8,27667.7,26120.9,0.0,3571278.9,
293,0.534,17370.2,21936.3,22983.5,17697.4,20812.6,22806.0,23476.0,20122.7,27604.9,24568.6,22979.0,88792.3,37010.0,12669.3,44060.1,109148.1,59663.9,22658.5,22133.4,0.0,3368998.0,
294,0.508,14604.8,16055.3,22801.4,26342.4,19889.0,23872.4,26808.6,29969.0,43813.7,34500.0,41083.5,149817.7,69285.9,20554.1,83821.5,170686.2,148225.2,38709.9,22413.9,0.0,3550720.4,
295,0.697,13766.4,15122.3,12230.7,10087.1,14687.2,15617.9,12269.1,14632.7,19192.9,39388.6,20327.5,68141.2,55130.0,8902.4,24840.9,44258.1,106612.7,18542.7,16248.8,0.0,3545075.4,
296,0.594,23163.5,29417.0,31442.8,33099.0,31061.5,35881.3,34252.3,24793.3,43758.0,28768.4,24283.8,137077.6,57571.2,16366.9,40965.6,96595.9,134462.5,35773.4,31371.4,0.0,3532249.5,
297,0.77,34409.0,37944.3,40455.5,38573.3,46109.2,52201.6,49304.1,40109.3,64883.7,35573.8,18137.8,139459.5,73431.1,27177.1,35144.4,40975.0,87717.2,49814.4,32309.7,0.0,3559259.6,
298,0.601,22046.5,27009.0,30319.9,25744.2,26688.2,35360.7,31069.0,31832.8,51000.7,31398.0,44543.1,220009.9,81627.0,16914.1,97338.1,191664.5,88208.3,40328.1,30380.6,0.0,3085020.3,fruition
299,0.886,19218.4,22518.3,26089.9,19679.1,25540.2,28952.0,27351.3,26079.4,31076.1,53523.5,32013.6,78188.4,56423.1,19797.3,36543.8,78953.0,102785.6,30468.5,29283.8,0.0,3220557.4,
300,0.91,25893.7,36530.7,32011.6,27942.2,34786.4,36524.6,38950.6,26309.9,34316.6,23056.4,27922.9,74615.6,26367.4,18377.5,48410.7,105675.5,29072.7,33885.3,25288.4,0.0,3465992.2,
301,0.639,18367.6,20653.2,25060.2,27305.9,18267.1,21955.2,23670.7,22291.0,27113.3,18513.1,30014.1,83303.6,31687.8,16334.9,47890.9,87278.7,38161.2,31398.8,27406.4,0.0,3529786.1,
302,0.437,21720.4,28952.3,36896.6,31219.9,34797.0,42536.4,43799.0,33337.2,71454.8,22643.3,21889.2,149594.4,67031.3,17144.2,54053.9,69371.9,49050.7,53765.4,33765.5,0.0,3302983.7,
303,0.496,17001.9,23150.9,25894.6,30705.2,26958.4,30297.8,30306.6,28800.1,38247.0,73529.2,36434.8,168523.4,95081.3,16026.6,68363.2,128190.0,129005.2,47711.5,59258.4,0.0,3683688.7,
304,0.54,14078.4,21413.5,31070.7,33333.8,23688.8,31828.3,37214.9,29551.1,57840.1,31502.0,17435.3,141229.0,69850.8,13856.0,54739.2,63154.2,37206.1,48760.7,35741.5,0.0,3372787.5,
305,0.536,23025.0,30323.7,31951.8,25355.7,30291.3,35823.7,34618.2,17372.9,33455.3,11212.7,23666.9,71086.0,23512.5,11012.8,37952.6,97978.8,42130.3,25939.2,19217.5,0.0,3540207.6,afterglow
306,0.595,26365.2,33598.2,34878.4,36836.4,30410.6,36552.0,37225.3,21325.3,32235.8,26131.5,11345.4,104589.7,51030.2,17978.8,28307.8,52853.8,78012.6,32892.6,32538.8,0.0,3739792.3,
307,0.499,13829.7,18321.4,24549.3,24314.2,19673.5,24208.5,28152.3,26694.0,44572.7,29887.5,31872.2,233600.1,80935.2,10702.3,87652.8,170817.1,161195.9,39174.9,20698.3,0.0,3460403.6,
308,0.489,6506.6,9626.1,12336.9,16802.6,8342.9,11468.1,14520.5,8403.1,13280.2,12464.6,9623.9,21622.0,12519.2,7705.2,14134.0,18255.7,13192.6,12155.5,19764.2,0.0,3481568.5,
309,0.511,7128.8,6328.4,6336.7,8363.5,7176.0,7587.0,6634.4,8797.8,11290.6,12405.5,6550.2,17976.2,12236.7,8375.2,11082.3,13842.5,12799.2,7304.5,11994.6,0.0,3270331.4,
310,0.466,14154.5,15428.5,19109.8,23036.0,20757.9,22656.0,23923.7,20047.8,28731.2,28256.1,7505.3,45880.6,28202.5,9116.7,21943.2,27978.2,24934.4,26986.9,29166.6,0.0,3544151.9,
311,0.462,5146.6,9820.9,11873.6,18100.1,7404.9,10122.4,12592.0,9124.9,8437.6,15859.5,4192.4,12726.3,16894.5,4242.1,9337.1,8525.4,9669.6,15495.0,22909.7,0.0,3182971.9,
312,0.439,8198.8,10311.8,11407.8,12465.9,9561.3,12355.1,11808.9,10508.1,10537.7,9732.4,9216.5,10905.0,9370.9,8573.4,11321.2,12757.1,9124.6,8472.0,17971.3,0.0,3153787.0,
313,0.443,5833.6,6357.0,9087.0,6131.5,6613.3,9285.5,9147.2,9826.0,8506.3,7914.8,18298.2,15510.8,7965.0,9181.8,16888.7,28048.2,15732.0,8534.8,7523.7,0.0,3245662.0,
314,0.423,7118.0,10747.6,14145.9,12120.0,11293.8,16290.7,17229.9,13366.3,24595.3,17657.4,14451.7,44236.5,25267.6,10870.1,20799.9,20838.7,14292.5,21478.8,13884.8,0.0,3053308.7,
315,0.419,11657.0,20090.3,26770.5,28669.0,19795.2,28356.3,29601.7,13159.4,27957.0,24979.6,14618.9,73757.5,30233.5,7977.8,26365.8,79387.8,84900.7,27920.9,36308.4,0.0,3281359.2,
316,0.518,24960.8,29465.3,33653.4,33008.9,29415.4,35481.9,36929.6,39870.0,51532.9,59456.1,65216.1,178149.7,83463.7,25011.7,103272.0,173876.1,144046.7,44315.0,38103.8,0.0,3421529.4,
317,0.419,21860.3,29348.3,29936.5,26581.4,31980.5,38531.7,37056.6,27978.7,55993.6,18091.6,21130.0,152775.8,42941.2,13994.3,53589.9,83175.3,103270.3,29697.0,15957.4,0.0,3176004.3,
318,0.625,19881.5,32749.2,44507.4,43090.0,34170.0,50872.0,55755.9,41968.8,79173.1,65737.2,49850.3,297748.9,132364.4,22103.2,115511.5,176992.7,174467.9,65890.2,48993.1,0.0,3418311.3,
319,0.659,19667.6,25776.5,27916.6,31086.7,25304.6,32750.3,32691.2,27955.2,42679.9,28737.7,21180.8,139113.7,53132.0,16096.7,47089.8,75252.4,80180.5,40677.2,27164.6,0.0,3675225.6,
320,0.444,15519.5,19814.2,25265.7,29293.5,21650.9,28267.8,30324.7,18229.0,35235.3,39079.8,15241.5,162680.9,58057.0,12649.9,43105.5,66205.9,127907.0,32909.2,27161.8,0.0,2983120.9,
321,0.438,15301.2,14135.0,17792.0,23504.0,19546.5,20618.6,22405.3,29366.4,40943.8,23361.4,24967.2,191469.9,63616.9,19101.7,60610.0,85093.5,114159.4,27621.3,19167.8,0.0,3216380.9,
322,0.389,7839.3,16234.5,21980.8,15634.8,13648.3,24054.2,25901.4,5581.3,20047.6,21212.7,38608.2,57580.6,27126.1,4935.1,38390.6,141238.5,97879.4,16471.0,12884.8,0.0,3091454.9,
323,0.412,19361.5,28944.5,32519.4,25545.6,27716.3,35759.5,34536.7,16848.2,32969.3,48760.0,15592.9,141243.0,60475.6,14939.2,45687.7,117689.5,176569.1,30491.9,29726.3,0.0,3077872.3,
324,0.39,8676.0,8655.9,10816.1,13182.0,11747.2,13036.8,14787.0,16468.3,19558.7,19369.9,24461.5,139064.2,40185.2,9712.5,50109.0,107492.6,83829.4,18982.5,15276.5,0.0,3154206.5,
325,0.466,5584.8,6164.5,6212.5,8034.0,6410.5,5916.2,6252.0,11679.8,23152.4,42352.6,13980.1,179164.6,71556.4,5965.2,45159.8,58072.6,157802.4,14258.5,12618.7,0.0,3190843.7,
326,0.412,17702.3,25932.8,35655.2,38775.9,26866.8,38401.9,42983.5,27921.6,64696.9,18899.9,35548.3,183557.6,42222.6,16691.4,94866.2,134808.3,40452.1,48612.8,35285.4,0.0,3280845.9,
327,0.405,20887.0,22447.2,21268.8,18762.1,26148.1,25890.1,24417.0,21528.0,27469.4,31542.3,25629.7,137409.6,50314.2,16059.8,43863.7,125647.6,133212.9,21150.2,18704.6,0.0,3120669.8,
328,0.442,8186.5,14859.0,16664.4,13501.5,13704.3,18218.2,16582.1,12823.9,29117.0,20939.1,14509.6,108520.2,24015.8,5883.3,38215.1,70986.6,64968.0,15791.2,16245.4,0.0,3074093.3,
329,0.497,14743.2,13546.9,11751.3,11732.5,11933.9,12006.5,11052.1,13762.3,10888.0,38651.2,18447.1,26207.6,19791.0,16452.8,19714.6,39583.3,71155.2,12194.7,17380.9,0.0,3285924.5,
330,0.419,9814.2,10448.6,9569.9,8983.8,10763.4,11618.1,10437.1,9901.4,13234.1,7564.9,8322.4,11052.3,9648.2,11474.4,7982.5,7571.9,6759.5,11440.6,13024.9,0.0,3050037.0,
331,0.415,17964.0,18452.0,19296.1,20544.8,19003.9,18439.0,20338.5,20707.2,25804.6,21702.4,21886.1,22472.4,22443.0,14939.1,20957.7,24571.0,22398.9,23562.1,23008.8,0.0,3027217.4,
332,0.362,12416.6,11825.7,12623.7,13384.5,13641.5,12895.0,13274.5,12988.3,15514.9,12711.3,18833.4,17816.1,13254.5,13083.7,16700.9,27733.4,23761.2,12084.6,12218.1,0.0,3234393.5,
333,0.401,7715.7,8583.0,9649.4,12723.8,9336.5,10682.4,12568.8,8998.9,12070.2,12389.2,8719.8,13075.7,14961.7,6426.2,10040.5,14055.8,17062.7,15541.8,11175.3,0.0,3097715.7,
334,0.375,10354.4,10674.3,12009.1,13046.7,11666.0,13301.4,10480.5,10991.3,11990.9,11531.8,11450.1,9861.7,9825.5,9393.4,12066.7,12333.3,10154.0,10401.1,15926.8,0.0,3157199.1,
335,0.383,5536.1,5188.2,5771.8,8883.5,5027.9,5274.3,7653.4,8013.3,6395.1,10237.9,8186.9,10105.2,11369.7,6466.3,9277.3,8338.3,9202.5,11606.2,8068.3,0.0,3182804.0,
336,0.399,5912.2,9261.1,14104.0,13134.3,7174.2,11315.8,13303.6,6022.5,11201.3,9695.6,3664.2,13056.2,8171.4,4395.2,4960.3,5708.9,9885.6,9092.4,12880.4,0.0,3145368.5,
337,0.392,14058.2,11064.5,9022.8,11877.1,15289.8,11607.3,11683.4,15726.0,15635.0,15433.4,20975.4,21154.3,17424.7,16019.4,20866.8,32184.0,23101.8,15739.2,17305.6,0.0,3206547.4,
338,0.377,8402.8,13493.4,17080.8,13948.2,11683.5,14692.9,13641.5,8916.0,10304.5,18948.3,5981.4,19900.3,16444.1,7210.7,9123.0,14145.8,40943.1,12660.9,14106.9,0.0,3355727.3,
339,0.666,11128.3,14856.5,18961.2,21062.0,12648.9,21652.3,20407.6,9997.5,16829.4,18016.4,11136.8,15832.1,12786.7,9674.8,15471.9,52471.4,11925.5,19000.4,19135.0,0.0,3062649.1,lot of purple
340,1.346,6249.5,10108.8,11535.9,11599.9,12201.4,12061.8,15010.2,8810.8,12338.1,10211.0,7494.7,11208.7,10993.0,6204.0,7674.0,16208.9,14972.0,17506.7,14928.8,0.0,3176849.1,
341,0.574,7604.2,8610.9,11338.3,10836.6,12856.8,9324.9,9947.1,13846.9,11825.7,10954.1,12789.0,13176.6,10760.6,8768.4,12658.8,18674.7,11369.9,12043.1,14406.3,0.0,3030379.2,
342,0.669,18937.3,20174.7,18863.2,20359.7,24425.4,20828.7,21047.1,27690.7,23075.9,17777.8,15558.9,19533.6,17581.4,18553.3,20342.4,17274.6,20457.7,25159.6,24465.5,0.0,3237483.0,
343,0.494,13828.2,16863.6,23865.2,18970.3,22279.3,21099.7,23236.1,20454.0,25537.3,19762.7,17763.1,52666.2,27262.1,13375.7,35069.5,68072.7,35984.6,23652.8,19072.3,0.0,3113939.0,
344,0.402,11257.4,9667.2,10717.9,13331.7,12321.2,11569.2,11625.9,14351.6,12735.0,19354.8,13588.4,19723.6,15919.2,14558.8,15228.6,17555.0,21569.8,12320.5,14545.1,0.0,2882182.0,
345,0.464,12688.9,15349.8,18616.3,18989.3,15397.5,18980.2,21672.3,9101.0,16835.6,18801.3,10711.3,19859.1,18673.7,11692.6,11102.0,16365.1,21200.2,18249.4,20274.8,0.0,3033930.8,
346,0.369,4283.3,3545.0,5243.8,5782.2,2686.0,3659.1,5117.8,6132.7,6875.6,11629.5,11768.0,19693.1,15735.8,7169.6,12751.4,21251.7,22945.3,8012.7,11164.4,0.0,3087709.1,
347,0.354,5454.1,6965.0,7549.3,7540.4,6982.6,7221.8,7278.2,7767.5,14885.8,11142.1,4786.7,18663.6,10403.0,4140.6,11462.8,8571.3,11663.3,8300.7,7790.2,0.0,3099255.7,
348,0.459,16911.6,18053.7,18386.2,20822.6,21243.8,23307.1,21379.9,22413.5,27575.8,23751.8,11540.0,35124.9,28446.0,17153.3,19046.1,25632.8,51315.2,22710.8,30258.8,0.0,2928168.7,
349,0.374,7174.4,7777.4,8770.8,8187.7,11168.5,15476.1,11597.9,9905.4,12405.9,23340.4,17190.2,41359.8,19188.7,7264.7,18837.2,52275.0,93658.6,6079.0,13441.8,0.0,2944636.8,
350,0.549,24521.9,28998.4,32338.3,25848.1,34682.3,40785.8,37738.0,28454.1,46619.5,31761.4,46200.1,160448.1,57593.4,22021.4,74376.8,142195.5,140461.4,35483.0,22948.4,0.0,3024171.0,
351,0.5,28152.2,37397.3,43346.0,30850.4,32749.4,45146.3,45606.1,28026.5,45619.6,30834.4,40900.0,91854.3,47737.6,23034.5,59787.2,138376.5,104728.5,36713.5,35545.3,0.0,3211264.8,
352,0.43,7944.7,7561.6,7285.1,7747.1,9670.7,9764.9,8765.9,8778.9,9930.1,18634.7,12018.1,37062.4,19237.3,8484.4,13711.4,19892.0,47641.2,10291.0,15606.6,0.0,3299558.8,
353,0.414,6730.3,8148.8,11242.4,11491.0,10221.3,11192.9,10563.5,11122.0,16245.2,11901.4,4858.4,16246.4,14992.8,5048.0,10267.8,11704.6,14576.0,12194.3,17249.1,0.0,3205910.4,
354,0.421,17248.6,16009.1,19502.1,28856.9,19240.7,17489.9,20716.0,23629.9,22128.3,24802.0,27512.4,24591.7,28092.6,20073.1,33389.3,66058.0,20966.2,28456.9,43595.3,0.0,3095623.7,
355,0.397,10022.3,8754.0,10024.3,7918.8,10976.3,11076.2,11492.8,10323.8,15948.8,15494.4,10842.1,32101.8,16684.0,7541.5,17933.8,27226.1,16990.1,12126.1,13394.9,0.0,3438162.3,
356,0.381,14442.0,16442.5,15047.5,15010.0,21299.4,23075.3,19832.1,23207.2,36812.2,32947.9,16066.5,57885.7,41379.4,13754.2,38893.3,33614.6,39047.8,29077.9,27004.3,0.0,3030242.8,
357,0.412,11693.7,22144.0,28519.2,31042.1,19777.8,30439.7,34613.7,12027.4,25842.4,36500.4,7514.4,40049.3,37729.5,5180.0,14384.0,12646.5,35056.9,35671.5,37073.8,0.0,3170856.5,
358,0.472,6317.8,8497.2,10307.2,15186.0,9451.3,11710.3,12745.5,16515.8,23210.2,40698.3,23320.7,83232.9,37935.9,8136.6,47740.7,94509.1,121861.7,19628.1,30141.1,0.0,3339763.8,
359,0.424,18859.7,24153.7,28289.7,21165.6,31045.2,33348.0,34131.2,46013.8,71934.5,56847.8,53221.0,254767.7,116425.8,24527.7,130111.1,195228.0,190511.7,45739.6,21412.6,0.0,3310571.7,
360,0.58,16979.1,16962.6,23151.2,24183.2,18964.8,19877.5,23323.7,31252.7,33655.9,48909.5,68855.4,222563.3,93937.3,25990.2,106475.5,180782.1,219213.2,27442.2,26966.8,0.0,3442513.3,
361,0.439,20275.3,26196.8,36376.9,34046.1,29142.4,39905.8,41278.4,31104.3,52657.2,15727.9,40499.6,186311.1,50863.5,16663.6,93814.9,199183.9,88599.1,41733.3,27876.4,0.0,3325567.7,
362,0.373,10555.8,13457.1,17199.4,16151.3,14009.9,16155.9,19774.6,9858.9,23945.9,14483.3,25807.1,78303.1,19845.8,8806.0,31967.6,97061.3,29744.0,18859.7,15496.4,0.0,3152807.6,
363,0.405,27467.9,26394.3,23486.6,17535.8,28795.2,28857.2,24380.2,23819.5,30861.5,16472.3,14098.7,28195.4,20763.9,20857.6,19751.0,21183.2,24390.2,21650.0,17511.4,0.0,3197054.8,
364,0.407,13277.2,15495.0,17546.5,21353.7,15929.4,21921.2,21190.8,10625.3,20280.7,22311.1,14441.8,24514.9,22558.2,9286.4,15646.6,59377.7,41084.9,21867.6,29015.5,0.0,3302466.6,
365,0.369,12987.6,18045.1,24514.5,21310.7,22049.5,30479.4,30664.9,14229.2,34387.4,22859.1,9332.5,81783.6,36496.3,6709.3,22621.8,45068.1,61838.9,26220.0,21529.2,0.0,2808976.3,
366,0.409,10101.7,13992.6,13968.9,12061.6,11537.4,13356.4,13002.5,8907.5,15162.7,19482.8,15506.1,37363.5,23718.3,7168.1,22835.3,45625.4,42282.2,14292.5,17141.9,0.0,2846075.7,
367,0.414,10554.1,19725.0,24939.1,20744.2,17922.8,22651.3,23447.2,11371.8,25863.9,20219.2,15568.2,23856.2,21882.2,7460.3,16098.4,43472.3,26991.8,20524.1,23524.0,0.0,3043398.4,
368,0.352,5403.4,8078.7,11893.8,13657.8,7729.1,11136.2,12568.1,5928.8,11926.6,11731.2,10811.9,47820.5,23787.4,5138.5,15269.5,35995.9,24369.2,14739.2,15409.2,0.0,2782909.7,
369,0.481,9004.7,11768.9,15318.0,16238.3,10600.1,15168.5,15190.9,12498.4,17257.0,21486.6,13177.7,27858.5,23163.4,12799.0,16897.5,22964.2,21834.0,20845.6,22185.1,0.0,2830993.0,
370,25.839,24672.3,47305.7,46068.0,25998.4,32926.6,42002.1,35376.6,20868.2,37582.2,26309.7,11043.9,28006.1,24655.2,14292.1,15722.3,67242.9,64665.7,27079.1,28708.6,0.0,2834495.4,
371,0.437,16266.3,24297.8,26200.8,25162.4,19907.8,27564.6,28151.0,16574.2,31354.7,28451.5,47925.3,38708.9,31837.0,13423.8,46730.9,137776.4,38454.1,32000.0,30115.1,0.0,2804551.1,
372,0.401,8475.1,13814.0,12270.6,16183.8,10318.1,13454.5,14832.4,8396.2,11558.8,14456.9,14445.7,42745.8,14419.9,8616.4,33532.4,66278.7,21929.6,15374.0,17712.1,0.0,2883880.1,
373,0.398,11564.4,17437.0,20313.1,21309.8,18680.3,23354.5,24265.3,17863.2,26550.5,32569.0,14859.8,35991.4,40221.2,14212.7,16194.9,24526.8,64694.3,27832.9,24552.9,0.0,3088233.0,
374,0.406,11570.2,15790.6,18152.1,18291.0,11703.4,15826.8,15022.3,19255.0,19304.6,35537.6,36712.2,131252.5,57428.4,13879.2,66025.7,119503.0,148067.2,15503.3,19374.1,0.0,3168115.2,
375,0.336,8906.9,16573.5,24279.8,24934.7,16453.4,25297.7,26963.7,8052.1,21423.7,13544.0,15553.0,107270.7,33339.0,5082.7,34289.0,101837.2,91794.3,17574.1,17760.1,0.0,3078035.1,
376,0.326,13021.8,15109.8,16022.6,13843.4,16698.8,18456.0,18687.3,24499.7,26628.0,18272.8,20112.7,101367.1,43337.2,15913.3,45474.6,45088.2,30833.6,24087.3,18943.9,0.0,3421782.2,
377,0.388,11790.6,18566.5,21759.2,17376.3,15286.4,20823.8,19316.3,12652.9,20657.7,12295.2,11515.7,85125.3,27450.3,5879.9,31130.2,61071.0,27904.3,17383.9,8083.8,0.0,3136567.0,
378,0.435,13745.1,12676.9,17268.1,14790.2,17952.9,20066.2,20709.9,13071.1,29018.7,20148.0,9510.1,29513.0,23895.8,10286.4,17433.1,25358.9,23388.5,21018.1,21972.8,0.0,3600334.6,
379,0.436,3698.8,4653.7,7583.7,7845.9,7347.3,8962.8,8757.0,6932.4,10516.9,32075.3,9592.4,43971.9,42302.3,7343.0,9883.2,22831.1,80052.1,13727.8,15612.1,0.0,3371434.1,
380,0.332,19042.2,23135.4,23876.8,25695.0,21578.6,23388.3,24170.4,26580.7,35027.8,23514.3,13073.2,67547.1,35640.8,19369.6,25530.8,18106.4,34983.4,29115.3,25529.3,0.0,3552668.7,
381,0.365,10622.3,15872.0,21370.5,23921.4,16706.3,23716.4,25148.4,15443.6,28310.9,20736.9,13206.2,41840.0,20434.0,9797.2,21040.0,22693.4,21914.0,22827.8,20090.4,0.0,3733814.3,
382,0.527,38630.7,39019.0,42126.7,43542.7,46171.4,47693.2,43449.2,37789.2,51159.9,47741.5,30611.3,50320.4,43129.8,35324.2,36255.1,46869.4,47084.9,42708.5,58143.0,0.0,3896696.7,
383,0.531,15291.2,15567.0,18265.6,19406.2,16589.6,18174.3,17232.3,16259.7,20276.3,22412.8,28334.3,82472.4,47473.0,13899.8,43072.8,87975.5,85192.0,18977.8,19895.2,0.0,3492744.5,
384,0.758,20366.2,19416.0,20326.7,14291.3,24623.4,23848.5,24368.7,31320.7,47134.2,16492.1,47653.4,202137.4,52651.9,24573.1,105242.6,172723.3,90842.2,24845.0,13769.4,0.0,3580328.2,
385,0.461,10749.9,17773.4,18487.2,19047.5,11060.8,16679.5,16518.0,9377.6,16218.7,22199.9,32367.1,153022.6,40582.0,5202.7,67082.8,190511.0,147770.1,14793.6,18094.3,0.0,3841581.2,
386,0.619,26407.7,35562.4,36414.9,36012.8,28780.6,37168.7,35040.3,25849.1,38482.3,33846.5,32487.1,90103.7,41249.8,18675.8,50664.6,95140.6,95082.3,32994.6,33236.0,0.0,3491789.1,
387,0.636,17192.4,30358.4,35290.3,30326.0,24094.6,33355.0,35171.8,13977.0,23675.0,30972.8,32372.1,91218.5,42087.2,12695.9,43327.3,140958.0,127573.2,29768.0,38544.0,0.0,3349698.7,
388,0.577,18533.0,22960.2,22436.2,24101.3,21806.7,25645.8,25481.9,27312.5,37840.7,53654.2,38205.8,198235.9,103177.8,19189.6,87460.4,166702.0,199225.1,43982.3,28304.3,0.0,3205517.6,
389,0.348,13490.5,21885.9,22298.9,20253.0,21482.6,27849.8,29173.9,17318.7,29968.8,16380.7,9407.7,69099.4,38351.9,13004.0,29169.2,33939.5,54377.7,29630.2,19691.7,0.0,3380916.9,
390,0.38,22892.7,34040.7,41640.7,38135.9,35915.7,47151.1,45578.8,24241.2,38357.5,25764.4,11849.0,79307.6,45543.2,15363.5,33626.5,45210.9,55423.3,32777.8,33591.0,0.0,3521441.2,
391,0.41,10165.1,17226.7,25986.3,25119.2,15470.5,23601.4,23437.1,10634.3,23738.9,35789.4,10034.3,103420.8,56809.6,6549.0,36005.2,83769.1,90810.2,23575.5,25649.1,0.0,3209559.0,
392,0.377,14655.7,23780.2,25554.2,20110.2,18731.8,26972.7,26700.7,19484.8,32894.1,29656.5,41150.4,175970.5,69943.1,15512.0,86455.3,156230.8,107579.1,30562.8,22507.1,0.0,3083476.5,
393,0.325,11151.6,12848.4,17667.4,17213.0,13947.8,17551.5,20979.2,13862.6,28294.2,8138.5,16942.8,104116.6,28467.5,10306.4,44285.2,65934.1,26237.0,16763.9,13061.5,0.0,3036200.6,
394,0.302,10333.9,11825.2,10405.4,16047.4,10283.9,10749.5,11903.0,11734.6,19523.9,23220.7,26175.5,140589.6,45238.0,9356.0,52851.3,96480.2,64863.1,17520.9,20090.7,0.0,2918434.6,
395,0.5,28523.5,39383.8,37956.4,35496.0,34795.5,41156.3,42415.0,27587.3,48786.0,63913.4,29804.9,246822.9,123633.4,20685.8,75026.5,133186.1,194517.8,46350.9,35010.9,0.0,2822848.3,
396,0.364,9765.7,15647.1,16456.4,9866.9,12436.0,16742.3,13585.0,13468.9,18073.5,29383.4,28425.6,111546.8,56454.4,8438.5,58013.8,97403.4,116676.9,11785.1,15264.7,0.0,2937431.0,
397,0.338,6537.2,10079.1,13796.3,13422.1,10881.3,15549.3,16049.2,11879.1,21307.8,27503.8,18946.0,110667.3,58067.2,4582.5,45408.3,112805.1,94795.9,21873.1,14921.5,0.0,2557255.5,
398,0.335,6025.5,8055.6,10507.4,11508.5,10396.8,14540.8,15432.5,12702.8,20826.3,14807.7,20666.2,125723.3,44153.2,8992.0,49476.8,103440.3,94685.1,16277.9,11505.3,0.0,2445407.4,
399,0.413,13332.2,16507.0,24257.4,25157.3,15236.4,22057.2,24566.1,15085.9,27494.6,29078.5,21110.1,90951.3,52877.8,9222.6,42141.2,61562.4,97898.5,24254.7,19273.4,0.0,2667529.9,
400,0.404,11416.0,14715.7,18688.0,15230.1,16272.1,18686.4,17023.7,20055.7,27508.0,19089.9,24767.8,162205.4,68510.6,11793.1,66282.7,107310.9,78210.5,23527.9,13592.1,0.0,2320005.5,
401,0.717,13709.6,16806.2,24199.7,24918.1,18845.3,27300.4,27173.5,19516.8,31370.2,12860.8,17152.5,77321.8,32445.9,13364.8,35369.2,54742.9,64390.9,19693.2,18935.6,0.0,2488639.5,
402,0.414,13825.7,22831.1,28528.4,20267.5,20548.8,26426.4,25564.6,15329.9,31793.2,31674.3,30225.7,128129.7,36070.9,10549.3,62519.1,153283.1,161866.5,18080.7,11927.3,0.0,2328376.2,
403,0.545,11171.1,19371.9,28063.5,29944.9,15852.5,22479.5,25067.5,20922.9,24535.8,19337.8,20092.0,104834.5,47131.6,13783.3,37057.3,52248.8,58581.4,27113.6,32711.0,0.0,2226067.1,tranquil and equanimous      
404,0.48,15584.9,19361.9,25384.1,22624.4,20909.8,26930.1,28917.4,21650.6,33232.8,32539.3,41129.8,175328.8,72516.4,22776.5,72926.6,143425.7,155338.5,29257.7,16029.5,0.0,2422576.1,
405,0.394,8736.2,11136.8,16240.4,12339.9,10940.2,13921.9,16149.4,10444.0,15319.5,39100.1,22918.8,130175.7,70725.6,9166.7,53582.2,81432.1,116217.8,18470.1,12078.5,0.0,2535413.9,
406,0.435,20348.3,23188.4,18950.2,16906.4,21819.3,20192.6,19439.3,26303.9,26427.4,25157.5,29566.7,133521.1,50398.3,19919.0,55280.8,82769.6,97255.1,23581.1,14502.2,0.0,2665714.6,
407,0.411,26400.5,36299.4,50499.0,53899.2,31982.3,45023.0,50070.9,23063.4,43697.6,29856.7,23643.6,122377.2,46687.7,15987.9,45408.6,90625.7,67411.3,46541.0,48862.2,0.0,2753537.1,
408,0.38,28382.0,37179.0,42357.3,35394.2,39615.2,48679.9,44262.5,36548.1,63780.8,28710.9,23967.5,139892.1,72734.9,22686.8,46052.6,72845.2,116492.3,45682.5,29708.8,0.0,2896554.3,
409,0.417,18340.4,28458.0,32039.4,21678.6,27842.7,39057.0,32415.9,21795.5,33887.5,21592.9,13067.9,112605.9,47986.1,8736.4,42642.3,63177.7,92795.7,26764.4,20883.8,0.0,3033110.5,
410,0.37,23200.0,33762.1,36762.3,29548.1,26669.0,35774.3,33771.9,22621.0,25563.5,27466.3,41851.1,131245.6,47134.1,19630.2,79059.4,141831.3,110556.3,21285.8,21886.4,0.0,2923303.2,
411,0.415,27758.6,34030.5,35089.8,33395.1,25659.7,29480.9,27697.6,18759.1,17396.6,18547.2,31552.1,164934.5,54429.7,20598.3,73086.1,162364.4,131867.3,17337.7,26634.7,0.0,2755648.6,
412,0.38,11774.9,15193.5,18548.2,15412.1,14604.8,20278.4,21425.5,12925.1,26015.3,35939.1,27843.7,94905.4,49757.6,17162.0,42823.4,121275.8,133684.4,21548.6,20407.8,0.0,2796873.5,
413,0.334,17592.6,25384.5,34768.2,29252.2,27602.7,36048.2,35209.8,26872.5,48514.2,22882.6,20048.0,117094.2,49211.7,15400.6,57860.2,66098.5,68277.7,34977.5,26646.9,0.0,2675422.1,
414,0.471,15683.5,20665.4,22918.8,25760.5,19316.3,24960.8,25723.3,25372.9,28399.7,51016.3,46167.5,96461.1,45162.7,16614.9,72676.7,133149.5,95426.2,27984.5,28725.7,0.0,2715067.1,
415,0.353,12753.1,11987.7,13205.5,12215.1,14582.0,14960.4,14771.8,16216.1,22144.0,19035.0,35732.0,128393.0,38213.1,15871.1,63438.9,123686.3,73706.5,14300.9,9665.9,0.0,2781426.0,
416,0.329,17733.0,23782.6,29969.2,24006.9,20369.2,29939.2,30566.3,18243.7,26569.0,28359.5,33928.3,83357.1,34849.2,17008.1,53971.0,89983.6,126335.1,19056.9,18059.1,0.0,2679307.5,
417,0.335,17574.0,20800.6,18388.1,20864.6,22110.9,23772.0,23033.9,26165.2,33487.0,45684.0,34703.0,129846.1,76353.9,18603.0,67426.1,116171.8,147987.1,31630.7,21160.3,0.0,2583402.9,
418,0.381,19592.8,24154.8,28834.0,26237.5,27905.3,34940.9,31992.5,17407.0,33510.2,50084.0,24658.8,130342.4,78032.8,12718.1,52037.6,104166.3,158908.8,29589.6,26862.3,0.0,2694247.2,
419,0.407,12653.4,22987.9,26504.2,23449.0,16401.8,29205.2,27807.8,15938.9,30823.5,18058.0,30690.3,160011.7,67672.4,9795.0,66688.5,109293.8,108917.2,22835.3,19480.8,0.0,2954473.0,
420,0.479,19208.9,28400.2,30900.1,33439.3,23897.4,29200.5,32362.9,15917.9,26203.8,23499.5,21162.5,66836.1,30875.7,13531.2,35132.2,73051.6,57152.1,29361.3,32334.2,0.0,3092752.0,
421,0.465,23808.2,27949.1,28968.1,23852.5,27274.0,32529.8,29329.3,20915.7,35030.8,22247.7,26892.8,92235.2,33018.8,16199.7,40016.2,73552.3,32965.8,29339.7,26294.1,0.0,3148360.9,
422,0.409,10634.0,15248.4,14604.2,10214.4,16185.6,20144.9,17153.2,12872.5,16504.3,11869.2,21358.5,43302.8,22771.7,13742.6,12939.0,31786.1,54636.9,9789.8,6747.1,0.0,3244721.4,
423,0.524,14417.7,22953.4,26952.5,24888.9,22075.0,27972.2,27410.9,11409.0,24760.8,23299.5,21459.9,69211.1,36286.6,9474.8,23672.2,57735.8,66025.5,22514.5,22252.9,0.0,3249047.7,
424,0.475,11305.3,9453.6,11284.6,11132.8,8762.8,11769.2,11379.0,11027.3,11375.4,35070.8,29689.3,120060.8,57652.5,12912.4,42232.9,107263.6,134195.6,10210.7,12490.3,0.0,3476469.6,
425,0.333,8595.8,14745.2,24219.8,26842.3,11269.7,21329.8,26533.9,11758.9,21128.7,35666.4,21661.6,66912.5,30546.3,6427.5,45255.4,95460.9,60833.0,24712.7,30471.0,0.0,3315487.0,
426,0.366,19069.5,21998.1,23031.1,12901.2,23075.1,28404.9,24226.6,14695.0,24126.4,29840.9,14137.5,76196.6,36679.0,11802.1,33363.1,60523.3,71398.1,15925.2,17715.9,0.0,3048226.0,
427,0.381,10216.1,15329.4,17905.2,20796.1,13582.6,17737.6,17099.0,14487.9,17843.5,52164.7,24832.8,164072.0,82155.6,9402.1,48866.2,84308.0,136595.6,22426.5,26903.4,0.0,3026204.2,
428,0.564,18738.8,21150.0,24683.4,30166.0,21236.3,25891.3,29060.1,22565.0,36423.4,37291.1,28634.2,138285.4,57437.2,13440.7,59030.5,91195.8,88453.1,35741.5,42726.3,0.0,2852516.3,
429,0.46,14604.6,14839.9,19025.2,20883.5,18117.2,25526.8,26616.3,20870.2,44542.9,17884.7,25070.6,137392.1,53668.7,9845.5,59498.3,82225.3,96143.8,31571.3,20157.3,0.0,2760432.4,
430,0.697,11618.2,16782.4,20393.0,23610.8,14192.8,16260.6,20766.6,13085.8,20963.6,36149.3,14222.1,75658.7,37900.7,9172.2,30979.4,49839.4,117282.9,20582.0,25439.7,0.0,2847153.4,
431,1.256,20340.7,34601.7,38484.0,31210.6,29034.7,37870.6,33957.2,18785.4,31292.3,40418.2,18265.8,94953.8,45137.8,13861.4,33177.1,72741.2,103093.1,31481.5,32806.2,0.0,2645306.2,
432,0.63,16566.8,23780.5,29376.7,27569.6,19316.3,26764.1,28735.2,18494.3,27282.3,20953.6,13423.1,63863.3,28127.2,11985.1,33853.7,57191.2,42338.9,29471.7,21262.9,0.0,2711462.0,
433,0.477,16783.2,23209.0,23037.1,14955.0,23987.8,27332.5,25105.9,15722.8,22509.6,32096.1,34648.7,41862.8,24739.6,11401.8,32286.8,124093.2,73594.5,16839.1,20144.6,0.0,2877224.0,
434,0.423,9646.6,13996.3,12410.6,16505.3,14547.2,18783.7,14847.1,12683.5,15734.7,43308.1,10337.3,25749.0,23900.3,6276.0,11971.3,39692.8,41221.0,19996.7,50067.1,0.0,2980365.7,
435,0.349,24553.5,26515.0,25567.5,26758.8,28685.7,32446.1,32669.9,26717.4,34224.8,30429.3,14788.0,47363.4,25846.2,19418.8,36314.0,79297.8,33538.6,28835.7,37326.0,0.0,3002363.1,
436,0.328,9371.2,13161.2,13077.3,12771.7,12638.0,14569.0,14351.9,13194.2,19774.5,20342.6,25039.3,59418.8,25198.8,9185.3,40185.2,116535.0,63589.0,15447.9,12531.0,0.0,3103156.6,
437,0.359,8885.9,10306.1,8864.2,7920.3,9556.8,8465.3,7547.1,10075.6,8575.2,15363.5,7073.5,40810.2,17688.6,9177.4,14830.4,56946.0,37093.8,7242.3,8991.9,0.0,2872813.0,
438,0.414,10537.3,11510.4,16391.0,16238.6,14243.5,16537.8,18455.8,18297.4,28845.9,32899.5,29289.7,117941.9,59061.2,12437.3,56032.1,102978.7,123288.4,21472.2,12746.0,0.0,3097043.3,
439,0.578,13335.8,20356.7,26734.8,25219.9,17099.3,24583.2,23975.3,16813.1,25200.8,25882.6,17104.8,85520.5,27886.1,10871.7,39157.6,67904.8,41237.1,25805.0,33119.6,0.0,3354887.3,
440,0.73,13016.1,13987.7,16552.0,16589.9,13821.1,14562.5,16099.0,19290.6,21152.2,24374.6,25368.7,58357.9,34844.7,11195.2,41103.4,73389.2,60866.8,19689.7,15230.4,0.0,3212694.2,
441,0.395,10031.1,12264.7,14351.2,14855.0,14331.2,17346.9,17935.0,12571.8,18749.9,11369.7,11128.8,24756.8,12208.0,9786.6,14968.6,13432.1,17653.0,14304.4,13848.8,0.0,3535342.0,
442,0.405,10079.2,14746.6,19968.2,18609.3,13834.5,18520.6,19663.1,8974.2,13428.0,16233.6,14978.9,37658.1,18402.4,8405.8,16460.2,62948.3,57118.6,14877.6,23319.1,0.0,3676118.0,
443,0.411,20915.5,21879.9,27292.3,27127.7,19334.2,25842.2,28195.2,20328.6,27080.1,30420.3,26870.8,74497.9,37799.2,17861.3,35574.0,80398.1,69311.8,25623.5,22931.5,0.0,3644381.8,
444,0.53,15357.0,15981.0,19536.6,26610.4,19660.5,19790.4,25027.4,29865.5,36606.0,34106.1,29006.9,105344.9,45480.9,17298.1,74008.8,105912.9,43861.0,34251.1,36009.9,0.0,3847624.8,
445,0.601,23522.2,29441.7,33070.0,28312.0,29326.8,38574.4,34362.8,21650.6,43270.0,16734.1,20219.8,113296.2,33215.6,15973.0,56986.3,117881.4,75553.4,24202.7,16113.3,0.0,3932929.7,
446,0.415,22566.6,28549.7,37505.6,40838.2,25725.2,32960.9,37691.7,20944.3,40847.4,29881.6,20554.2,150719.8,58542.9,13115.4,55244.8,92025.5,104619.8,35438.9,34708.3,0.0,4193574.8,
447,0.445,15639.3,16401.3,17357.6,14162.2,14521.8,16001.8,15880.9,17053.2,15815.9,19673.4,17171.1,37078.0,23167.2,16166.8,23781.9,28127.4,23619.4,17993.4,14429.9,0.0,4164104.0,
448,0.49,20715.5,24928.4,24371.8,23546.5,21934.5,25519.3,25816.1,25028.8,38693.8,46540.2,34541.3,144699.0,65027.9,21704.3,57986.4,123041.8,127840.4,32914.2,27725.3,0.0,4188994.6,
449,25.167,15576.1,25121.9,23790.5,17506.8,19574.6,22341.8,21718.4,15008.2,27656.4,18747.0,18569.7,97438.7,36515.7,15238.6,29631.5,106007.6,111587.2,18102.8,14427.3,0.0,4191301.9,
450,0.954,23195.9,29551.4,34117.3,25887.6,23313.7,27955.8,26699.6,12138.8,18846.9,28617.2,25557.2,102932.4,37055.5,12684.8,38616.7,129812.6,111251.6,12250.8,13752.2,0.0,3963859.0,very wide
451,0.762,17574.1,24079.4,29811.5,26262.5,26930.1,33276.9,38493.0,20195.4,36322.9,19795.5,19433.7,137367.2,48436.2,10440.9,42016.0,92201.6,111765.6,35505.9,17692.6,0.0,4205137.8,
452,0.39,20201.8,27510.9,31413.1,21173.8,25724.9,33284.7,32777.5,27801.8,40178.5,29709.5,32270.9,196967.8,66069.5,16424.4,83176.4,142209.8,147903.0,27394.3,16583.7,0.0,4418232.6,
453,0.365,17721.5,18119.5,17647.7,18105.3,18186.2,16893.6,18759.2,25604.3,24815.1,29649.4,31994.5,151569.0,69079.9,19218.8,70960.6,100453.0,98937.3,21893.1,14045.2,0.0,4239585.1,
454,0.417,15608.2,19344.9,18004.0,15075.7,16416.2,17387.2,18591.1,17862.3,25614.2,36310.5,10693.9,54975.3,44821.6,10633.5,25002.8,31947.4,63207.4,27625.6,16722.9,0.0,4273404.9,
455,0.374,12524.3,19670.5,24696.5,22884.3,16874.7,22166.3,26735.0,17861.7,26943.9,59687.3,7109.6,60269.4,60954.7,6456.4,13474.6,19116.0,120816.0,30642.4,33520.6,0.0,4327805.1,
456,0.508,14818.0,18699.8,22144.7,27161.2,14548.7,18170.2,19116.7,16739.3,16310.3,51304.7,28852.9,39723.1,38735.0,13407.8,50753.3,93239.6,77802.2,22680.1,31617.6,0.0,4404679.6,
457,0.379,20821.2,35786.7,35962.4,19766.2,24451.7,32057.0,29693.7,14848.3,17182.8,16125.3,21049.3,132085.8,42602.1,11507.7,47950.3,136856.1,114114.4,11880.6,13686.5,0.0,4481341.9,
458,0.341,14791.3,20222.0,17870.2,14363.1,19342.6,19227.7,17891.9,26844.7,22183.0,46187.3,35891.1,222056.9,83147.1,15817.5,99941.4,160986.1,138431.0,22625.3,24465.8,0.0,4537768.8,
459,0.366,14368.9,20372.8,22627.5,14053.3,21279.2,28048.1,23632.8,14060.2,23322.2,36812.8,14262.3,96090.0,69768.2,11140.3,26476.8,35160.6,134126.3,15575.4,13499.0,0.0,4676169.9,
460,0.368,10982.4,16965.9,19829.0,17213.8,16705.0,21382.4,21943.3,18214.1,32791.9,59994.6,25292.2,183707.8,103859.8,9669.9,71711.0,131289.9,196030.2,32246.5,27129.2,0.0,4522709.8,
461,0.331,7865.2,9819.5,9402.0,7034.8,9076.8,11488.9,10713.4,6177.6,13322.4,49158.2,11763.1,173806.4,93460.3,4108.0,35450.6,82973.1,236718.7,13384.3,10227.8,0.0,4588740.1,
462,0.369,18329.8,24233.7,27669.4,25288.5,25259.1,30409.9,28991.8,20074.7,44050.5,27394.9,16957.3,171546.9,66551.9,7614.8,52990.8,106569.7,152130.0,27176.1,16335.4,0.0,4625140.4,
463,0.375,17751.8,31937.2,44514.1,31808.4,26497.3,42392.9,42893.1,11280.8,29091.1,15959.4,31041.2,200012.2,54566.9,6358.6,71039.1,185147.9,169200.3,21902.3,17815.4,0.0,4465433.0,
464,0.317,16458.4,19226.2,21013.0,15196.1,16479.1,22976.1,21312.4,9104.8,15551.8,31950.1,24736.4,149123.8,59490.1,7684.5,54479.1,124593.3,172194.4,12662.7,11523.2,0.0,4527659.1,
465,0.355,8605.5,9594.0,12107.7,14579.8,7770.1,10878.0,13521.4,11932.6,20560.3,46097.6,36647.1,130091.0,77030.9,9888.1,57826.0,113196.3,210716.1,22537.5,13880.0,0.0,4385845.3,
466,0.408,16631.5,28642.1,35883.4,32090.2,21292.5,30744.2,34622.3,16292.3,28670.0,13494.0,22954.4,105985.3,26639.5,10057.7,57721.7,133779.5,56132.9,21699.1,26537.6,0.0,4293756.8,
467,0.402,20003.3,21304.6,23393.2,21195.6,26487.0,29445.0,27249.5,26104.6,46532.5,23041.3,15830.8,121249.4,41012.5,12499.2,48742.8,69719.4,58033.6,28396.6,16217.2,0.0,4331539.0,
468,0.376,14554.6,29723.1,30113.0,24369.2,25626.7,41274.2,37897.9,9762.1,41260.6,41669.1,25106.8,64848.0,44366.6,4225.8,27284.9,75583.9,56278.9,35898.7,28945.5,0.0,4407631.6,
469,0.397,13299.5,23117.0,33118.9,29373.3,15795.6,26261.9,27298.2,11860.9,25012.0,47246.2,22296.3,192727.7,94597.1,8639.5,59880.5,95823.9,165860.5,27208.7,28338.5,0.0,4367433.7,
470,0.456,8787.8,21014.3,27154.1,24616.0,15639.6,27626.7,29365.5,10987.2,19088.0,53734.0,27322.3,188264.7,121829.6,6395.3,57585.4,110283.6,191730.0,39047.8,29461.6,0.0,4020646.8,
471,0.368,16675.9,22721.4,21307.4,18344.3,20458.6,22372.7,19152.3,12890.9,22293.5,67358.0,18217.0,83064.5,81291.3,9807.7,26871.9,78544.2,258379.1,20579.3,23854.6,0.0,4000797.5,
472,0.931,19660.8,29286.3,39018.4,33550.6,27732.7,36322.3,36827.2,31835.5,37836.4,26135.6,54419.1,156095.5,68488.7,20818.4,93422.4,168099.3,91678.8,32209.9,19951.8,0.0,3962871.5,
473,0.814,17249.6,19261.6,26213.3,26915.3,19190.9,25547.2,28459.7,22004.5,31745.8,21974.4,53069.1,52980.8,28718.2,22557.7,49436.8,150452.3,23311.5,28093.8,27845.2,0.0,3622432.6,
474,1.215,14676.1,21002.3,26870.1,20620.8,20775.5,29405.4,27716.2,21287.4,28401.6,32657.3,41549.4,148389.8,44371.1,13710.7,83804.3,188383.2,165700.9,19884.5,17217.3,0.0,3910252.9,
475,0.671,21399.9,23464.4,28967.5,26816.7,25362.7,31426.8,31918.6,21878.1,36027.9,56991.0,23434.2,180780.1,100908.1,15245.6,50882.8,135191.1,235149.5,35766.7,21078.0,0.0,3894372.9,
476,0.442,27748.5,28480.4,28076.5,25844.3,27860.1,29748.6,30196.1,22616.9,25311.6,27204.5,42821.9,84680.5,46132.8,24275.4,37850.9,87724.5,120408.2,20957.6,24110.9,0.0,3753013.0,
477,0.501,20987.5,29438.6,36823.3,21756.2,24225.6,34981.9,32095.6,16723.9,33283.3,14201.8,13569.5,91678.6,32549.6,13406.0,31241.5,80341.3,91205.9,19406.3,12024.4,0.0,4022041.4,
478,0.392,15814.4,27400.1,35915.4,29067.3,23694.3,41645.9,39722.5,15541.5,25158.9,33982.6,26671.6,74739.3,30762.7,14010.7,48833.3,94867.2,66772.8,24818.1,33170.5,0.0,3855489.6,
479,0.371,20030.2,28840.1,28538.6,22133.0,26688.9,34651.1,34415.8,20905.7,42254.3,72133.7,9407.5,153941.7,105814.2,7393.9,39297.2,77792.9,212322.8,40910.2,23576.6,0.0,4026328.5,
480,0.382,17792.9,23668.0,22927.1,19149.4,23511.2,26755.0,24475.5,15458.8,27392.6,65178.5,13734.5,134747.7,85207.6,11062.0,25180.6,54829.4,240698.2,24418.1,17800.2,0.0,3993961.4,
481,0.347,17687.2,30031.9,32097.1,21742.7,27056.3,42985.5,37642.4,20645.4,53796.5,55662.1,37626.7,226710.6,112667.0,11151.3,70626.5,121237.2,150138.6,48339.7,34323.1,0.0,3976952.1,
482,0.386,7300.1,12387.5,16947.4,12289.6,11009.7,17861.7,15330.2,15010.2,20439.8,43160.8,17875.0,182656.7,75819.1,7729.7,47631.3,69163.4,168207.8,16820.3,13388.8,0.0,4116265.2,
483,0.54,24388.9,31856.7,35444.2,28070.4,32889.6,42307.5,41468.2,25132.2,45948.9,58959.4,27725.6,212605.1,116286.2,18992.0,50751.9,80679.2,244814.9,42039.2,29132.4,0.0,3919875.1,
484,0.353,19750.9,28714.0,29176.6,27256.1,29319.0,38301.3,38659.1,26177.2,57607.6,51883.4,11032.2,188877.7,127232.4,8965.4,44057.5,86345.6,211295.3,54319.4,29860.6,0.0,4359638.4,
485,0.427,19013.8,24544.6,27270.0,32363.6,23456.6,29152.2,36457.9,18800.0,45865.9,42190.1,22978.9,116286.4,66750.2,11402.0,36530.2,65247.6,62310.5,44884.0,40685.8,0.0,4362802.5,
486,0.469,19176.8,22690.1,23882.4,26577.0,22123.5,25825.3,24430.8,18216.2,26858.0,46121.7,17453.2,32521.8,37187.7,14786.0,27811.8,59365.7,50791.0,27334.2,35334.4,0.0,4286480.8,
487,0.37,10666.5,15102.6,16003.7,16174.8,15417.0,19303.6,18087.1,16600.0,25831.8,45095.2,23796.1,128074.0,54904.4,10951.0,52496.6,114087.0,172387.7,22848.1,19043.7,0.0,4138555.3,
488,0.416,32314.9,39617.6,35561.9,24304.0,36162.1,40356.2,33286.5,21431.8,32403.3,33875.9,23983.5,138259.5,59374.1,21637.0,47862.9,115932.2,162628.8,19309.1,20131.2,0.0,4082218.8,
489,0.426,9360.8,11372.3,14480.2,16151.1,16970.3,18090.8,18016.9,37747.9,46289.2,38386.1,48930.5,253208.0,87887.9,22410.4,108806.1,119483.9,123989.0,28622.1,21877.9,0.0,3910203.7,
490,0.402,10193.3,16297.0,19538.8,13986.6,14743.0,23365.0,21312.1,14301.8,30526.8,26018.4,15198.2,125999.3,45316.7,9289.6,43466.7,55904.1,117514.5,15790.0,12926.4,0.0,4079432.1,
491,0.388,9015.0,8882.6,11488.5,10688.7,8480.7,8656.3,8893.5,11911.0,13488.6,30258.8,16431.9,61381.4,71215.2,10597.1,14273.4,24824.6,67408.6,20110.6,15558.7,0.0,4072792.7,
492,0.381,16530.0,28532.5,32844.9,26586.5,25533.4,36999.3,33623.2,14246.7,28048.5,40676.6,22144.2,24937.9,32095.4,7762.4,33589.2,87529.8,92436.3,28054.1,26571.1,0.0,4113831.4,
493,0.38,25758.4,29764.3,37055.5,31303.5,34139.1,42393.2,41170.0,34726.5,54136.8,27570.6,27018.3,116754.7,62272.3,28006.8,43214.2,40645.2,84489.0,42041.2,32182.1,0.0,4285900.4,
494,0.347,9169.0,12200.0,13929.7,17504.2,12224.2,13656.0,14653.0,12455.7,16333.1,50727.1,24202.5,119474.9,62213.7,11540.2,45018.4,83992.4,138664.8,20187.4,26204.9,0.0,4103569.8,
495,0.368,11804.8,15734.9,20324.6,21750.0,15451.2,18350.7,22795.3,19997.2,20983.1,24843.2,32215.0,105959.5,39215.7,11526.9,68234.9,150582.4,111355.8,18424.3,20344.6,0.0,4302898.9,
496,0.394,42615.2,52445.2,55148.7,43546.9,46719.4,54907.0,56211.9,35986.2,50672.5,37734.0,18818.6,160476.8,69519.4,31390.9,48660.0,96186.6,150899.7,40918.9,33736.0,0.0,4220723.8,
497,0.341,12955.7,21170.2,23514.3,22641.8,24134.4,30423.5,32398.9,27016.4,60400.6,66123.8,11628.5,243746.1,144390.1,10405.1,48964.0,44491.6,222938.7,50938.7,31333.7,0.0,4041822.0,
498,0.381,18714.0,26605.0,29185.0,21358.5,22678.0,31690.7,29779.2,7766.2,13173.4,12990.6,22387.9,63208.6,38093.7,6169.0,33085.9,90009.5,70857.4,18892.6,19004.6,0.0,4206641.8,
499,0.408,25129.0,30824.8,32219.0,40079.4,30672.8,37048.6,40662.3,26022.2,54018.0,71991.7,22133.7,220895.4,146871.8,21313.0,64761.0,84307.3,99740.8,76554.0,57042.5,0.0,4018935.5,
500,0.48,18656.8,29612.5,35274.5,26568.1,20169.0,28548.8,30576.0,14231.0,18549.9,26376.5,29459.1,107157.2,46803.7,14921.9,56169.5,102971.8,62643.8,17417.7,28273.3,0.0,4330983.1,
501,0.361,16574.3,24708.4,28208.0,30426.9,22043.8,27861.0,31000.5,18783.6,38170.5,39323.2,14589.0,78924.6,47444.2,10920.9,37173.6,53090.7,39854.3,43858.9,43005.5,0.0,4342306.3,
502,0.413,9903.0,24173.2,26228.7,26533.8,21311.3,29277.0,32485.4,23231.2,40934.1,24126.9,18470.0,66796.5,38321.1,13293.1,37957.2,48970.2,35159.6,32789.0,24969.5,0.0,4267273.4,
503,0.409,6646.0,11008.8,14987.1,14501.2,10517.4,17533.7,17975.5,9427.8,18184.0,13167.9,11856.7,40176.0,16350.0,6894.0,22666.6,30925.0,17324.9,15547.0,14417.6,0.0,4456639.9,
504,0.533,26313.5,35617.7,49519.6,64461.4,36620.7,47006.0,53622.4,34442.4,45261.3,58130.1,29056.0,44668.2,50243.6,27125.7,32831.8,35281.5,52015.4,52835.1,68790.4,0.0,4496516.9,
505,0.376,12520.4,13947.8,15886.2,16487.2,12050.0,15351.2,16575.4,12793.7,19609.0,20923.9,10434.9,20917.3,21527.0,9837.4,12549.8,14725.6,22645.4,19362.9,21631.6,0.0,4347280.8,
506,0.328,12131.6,12261.8,10234.5,9004.8,11871.8,12992.4,12079.5,9557.4,12088.7,7412.1,11453.5,2949280.6,10654.2,10876.7,10911.2,13965.9,11309.9,9723.6,9474.8,0.0,4236655.1,
507,0.344,7207.7,8472.7,12134.6,13143.7,10425.8,11477.4,10621.4,8591.0,14065.1,14165.8,9679.7,18596.6,18708.5,5858.8,10989.0,14764.1,18204.8,17287.6,15949.3,0.0,4372493.4,
508,0.402,21314.4,24916.9,31142.8,36303.9,26609.0,31875.5,35646.9,32430.3,37836.9,42635.3,20349.8,43945.5,41988.5,21023.2,31238.2,26262.9,39955.9,41462.6,44111.6,0.0,4313487.0,
509,0.422,24923.9,29499.7,31653.1,31950.6,30453.0,28921.7,29863.7,32510.7,33432.7,39064.6,21781.8,32113.9,35333.3,25415.2,26745.2,24475.9,34911.5,31894.4,41850.1,0.0,4410537.6,
510,0.543,16513.4,19317.5,17263.7,19211.1,17277.7,17346.5,16768.8,16175.9,18066.6,29798.3,21298.6,24993.2,24631.7,16235.8,17971.0,23909.0,30968.7,18317.3,22551.6,0.0,4346455.4,
511,0.383,12350.6,12412.7,16300.3,17763.3,13843.8,17824.1,17335.4,12960.1,19007.0,18361.9,12816.7,17882.7,19291.7,12134.2,13714.8,14041.5,17110.0,19824.4,18403.8,0.0,4404134.6,
512,0.332,14467.2,20733.7,24784.7,29984.1,21369.5,27594.0,26726.1,17970.9,27106.1,36943.4,12210.9,31130.9,34333.1,12215.9,18503.7,21269.4,30338.9,35057.7,40062.8,0.0,4274583.1,
513,0.672,19596.7,23234.4,25973.9,26461.7,24356.2,30921.4,25803.0,22233.8,28602.0,21322.5,14856.0,26004.2,23421.7,15480.7,18755.2,16521.1,20199.3,24842.6,27166.1,0.0,4131808.2,lot of purple
514,0.428,13271.7,12711.1,16251.1,25391.6,16533.4,16832.2,19544.9,17691.9,21122.7,32255.6,20743.0,35682.7,30558.4,20076.9,21980.7,22889.6,35489.7,27435.0,33255.5,0.0,4165111.0,
515,0.377,7101.0,8954.2,9096.5,9673.1,9250.0,9315.0,10687.9,11204.4,11617.4,8888.1,5786.5,10628.1,9251.2,9215.1,7757.9,7642.9,7538.0,12009.0,10883.8,0.0,4109447.2,
516,0.48,16914.8,20090.7,21768.4,19688.1,20503.5,24103.2,26882.8,18780.2,22846.5,22031.4,14597.8,20612.3,25612.7,17980.1,16636.9,16560.7,19141.1,27548.1,20121.6,0.0,4332172.7,
517,0.369,8744.0,14777.0,16891.6,13776.8,17753.8,20658.3,19561.1,10342.2,22147.6,14677.5,14638.9,18450.3,12754.8,11045.1,15024.0,28763.6,14737.4,14098.1,18942.2,0.0,4091958.5,
518,0.496,17089.8,21319.7,26445.2,22034.9,23570.4,27116.8,29097.3,20367.3,29190.0,22450.2,14890.8,29420.8,27545.4,13869.0,19622.1,17311.9,20929.4,27864.9,23669.6,0.0,4058213.4,
519,0.356,8232.3,10013.4,8729.6,10179.3,7816.8,9593.2,8155.0,6579.9,5858.3,24372.3,9645.6,17333.3,17605.7,8183.8,8706.7,11631.2,55703.3,8475.1,16175.6,0.0,4014851.2,
520,0.39,10656.2,11501.4,13057.8,13284.7,11363.2,13178.1,13272.7,13382.4,14554.9,24271.3,14231.2,17740.2,18345.2,9680.9,17322.7,35767.2,25611.1,15240.0,14136.2,0.0,4119534.7,
521,0.384,6349.6,8372.2,11030.1,13312.1,8989.2,12452.2,14385.2,6180.6,13972.7,11658.7,7492.0,15758.3,12042.0,5622.4,9215.5,8996.2,10176.6,11911.3,14504.7,0.0,3735488.3,
522,0.486,14010.8,14828.9,15065.7,17757.6,17839.1,19990.9,19332.9,17602.1,22071.9,19202.9,14512.2,18655.0,19861.5,17196.9,16310.1,13660.9,17250.1,19733.7,22696.5,0.0,3959184.5,
523,0.52,21454.5,19676.4,18762.7,18467.1,19547.9,20588.2,21008.3,22643.2,19900.7,18602.1,17512.7,22773.2,25782.2,23472.1,21284.2,20388.7,20725.3,22527.6,21738.9,0.0,3739965.6,
524,0.387,13630.0,12385.3,8087.9,13759.3,10991.7,10393.4,10535.2,13117.0,15363.0,14910.2,10401.1,15194.7,14427.1,11677.4,14604.6,11506.6,11246.4,14792.8,25873.5,0.0,3845049.5,
525,0.325,14376.9,20239.5,22255.9,21463.0,16763.9,19876.3,20213.4,20514.1,27329.0,29636.4,17073.2,50458.3,29819.9,15194.1,26602.8,32070.3,30052.0,23796.8,25696.6,0.0,3845689.2,
526,0.347,16201.9,14769.5,15855.6,17462.6,17514.9,16914.3,17257.1,22821.5,23493.2,16148.2,22727.5,42526.1,25480.8,20125.9,28510.1,27027.5,25839.1,20129.3,19998.2,0.0,3749510.1,
527,0.386,10365.1,15259.4,18061.5,14254.0,14535.4,15165.8,14488.0,17944.1,20974.2,13122.0,11772.2,22206.4,16036.1,11286.4,18973.9,16269.4,16220.1,14522.2,14258.3,0.0,3502866.5,
528,0.321,5268.4,7141.7,11379.2,14976.0,8228.8,10681.9,11714.8,7856.5,8269.8,16796.4,9652.4,7927.0,11814.9,6021.9,7257.5,10080.2,14489.1,10847.4,19295.6,0.0,3416861.6,
529,0.618,12136.4,23568.9,29775.4,25936.6,22293.9,28155.4,31618.8,16996.3,32376.5,36930.8,16706.9,30457.3,31586.6,8983.7,19226.2,20339.8,23799.2,34581.6,34317.2,0.0,3419052.0,
530,0.346,12731.2,17053.5,17422.2,19424.1,14707.0,18177.2,20391.3,14231.0,18969.2,27924.5,15045.7,20348.6,22221.2,13856.1,16456.5,18178.7,24592.1,24799.2,25012.4,0.0,3626943.2,
531,0.336,8208.0,9608.4,10440.0,10837.5,8947.7,10570.7,10432.7,10079.7,14001.2,16707.7,8571.8,20056.7,19210.8,7551.3,10502.5,11944.3,18533.2,14939.1,12503.1,0.0,3453650.2,
532,0.293,9476.9,8784.6,11246.4,10132.8,10058.1,12415.4,9951.8,8817.4,11246.1,8445.5,11584.6,8627.6,8849.2,12223.5,10014.8,9464.8,8515.4,8353.4,10438.2,0.0,3344169.7,
533,445.044,4495502.0,1433883.4,272503.8,180410.8,77260.1,13284.6,16397.2,11691.1,14250.8,8678.5,13937.0,12714.4,10836.3,201949.6,11254.0,12319.1,15273.7,13718.2,70424.5,0.0,3366036.9,FRUITION-CALC
534,24.434,11882.8,33452.9,40123.8,40043.2,17792.7,27922.4,34235.8,18087.7,28196.5,37284.4,23348.9,29333.5,39780.8,10015.6,19766.9,62301.1,56224.9,45261.5,31718.2,0.0,3153005.3,
535,0.359,17305.4,17157.2,26809.7,32145.6,18506.4,25729.7,28528.0,13520.7,20179.1,12102.7,11998.8,22067.7,11544.3,12437.1,16543.0,69510.0,21590.7,22035.9,23363.6,0.0,2995957.1,
536,1.151,36695.1,48326.0,50922.5,38490.8,45675.0,58396.9,52109.3,29711.7,49637.1,27007.3,34845.3,124190.8,46940.8,21652.0,39388.6,144190.9,115874.3,36040.5,24251.2,0.0,3113861.8,
537,1.677,7046.6,5944.4,8575.2,9900.5,6952.4,9094.9,11611.5,18728.4,21681.8,14620.1,35583.8,144153.5,43734.5,12466.0,62058.7,104794.6,47672.1,17753.6,9837.3,0.0,3108901.1,
538,1.938,7277.1,10024.2,9246.6,7140.0,9177.6,11271.2,11031.1,11975.0,21664.3,18071.8,22371.5,153422.2,47174.3,5396.3,47038.2,90526.0,73403.9,15243.9,7086.2,0.0,3319658.9,fruition (no-self)
539,2.623,25253.1,34052.5,31582.6,27120.1,34119.2,37796.9,35757.7,29386.0,46353.4,21584.8,34712.0,160794.6,53094.7,17348.6,66690.2,136054.2,90385.4,31555.2,21781.1,0.0,3182850.0,
540,0.679,21750.7,32097.2,39185.5,28831.8,32286.1,42223.0,38173.3,24694.6,40472.0,26049.2,24054.4,81264.9,33699.9,22231.2,36834.2,103826.7,94317.0,26132.5,26483.9,0.0,3415268.4,
541,0.884,13911.5,18944.9,16527.2,11265.1,18014.4,20784.6,16796.0,15673.3,20993.6,14607.9,20424.4,46511.7,16769.8,11089.5,28528.0,81232.0,64509.2,10590.1,12118.6,0.0,3250613.9,
542,0.738,16628.1,22495.5,30671.3,37482.7,23622.0,33475.4,35385.5,27536.6,43855.5,59807.1,16527.1,191069.1,122487.6,14512.5,45205.0,47752.7,207493.2,45988.6,44463.8,0.0,3180995.6,
543,0.49,19447.6,27835.6,31053.7,22573.3,25213.6,31760.6,32947.7,29362.7,52962.9,64792.2,18473.8,200268.6,132149.5,17462.6,48732.9,44760.1,146180.5,52438.7,32385.8,0.0,3256781.8,
544,0.354,12555.3,17398.1,21083.2,25572.0,17205.1,20946.2,21226.0,13549.4,19386.3,24354.2,8056.5,46768.0,34188.4,8586.3,14892.9,13613.9,41978.4,25969.7,30283.4,0.0,3122482.0,
545,0.888,25603.5,38172.7,28838.6,18527.0,24835.5,25347.1,21016.3,17118.9,20834.3,16084.7,12700.3,30739.0,23985.7,14132.9,11552.4,45058.1,32148.4,16513.1,11473.3,0.0,2937111.5,
546,1.484,7471.8,11096.2,15426.9,10329.6,11748.9,15902.7,16346.6,13477.1,26909.2,11504.8,20489.8,104779.0,28145.9,6694.3,39019.9,71333.1,40385.3,23825.9,12149.6,0.0,3130998.2,rays of light stream into my eyes
547,0.338,10103.7,12397.9,13116.6,14303.5,14267.8,16245.8,17843.3,16037.4,33724.4,25329.5,12707.2,161972.8,53770.0,7743.5,48751.3,72481.3,85662.5,23933.3,13759.5,0.0,2954745.5,
548,0.427,21388.3,25249.3,24570.9,21970.5,28092.4,28535.2,27422.2,21031.7,32821.7,23896.1,19990.8,84646.0,48078.5,10497.1,34491.4,72263.1,99041.3,35983.3,20763.2,0.0,3172671.7,
549,0.399,8662.4,12910.7,12727.6,8749.5,21034.8,17092.0,15707.0,16665.6,31553.5,34511.2,24205.8,198285.6,83710.8,8114.3,56294.1,135678.8,154939.5,21327.1,12768.3,0.0,3227912.9,
550,0.337,13072.6,18484.0,21499.0,22848.7,15492.7,18447.6,23486.3,23995.4,41121.7,34761.5,21926.6,227606.6,102399.1,17745.5,72391.4,108994.2,159727.2,38734.9,24689.1,0.0,3329367.1,
551,0.344,14530.4,19506.5,21830.8,23053.3,21242.9,24406.3,25898.1,26287.5,51873.5,70959.8,39851.6,294465.5,151256.1,15130.3,88904.7,187891.1,272469.9,46803.5,29919.2,0.0,3092718.4,
552,0.375,8683.7,10344.0,15801.5,20147.1,13305.5,17981.6,20638.4,16460.9,37375.0,36477.7,11801.6,163415.4,92891.9,7239.7,36489.1,34206.5,90391.9,35607.1,21691.2,0.0,3138341.9,
553,0.375,10498.2,8527.2,6447.2,7283.1,10316.6,7911.7,7259.0,14514.0,12236.9,14973.2,20992.4,61772.2,33068.6,13690.5,23771.6,26984.2,69507.2,6933.1,8517.6,0.0,3029889.1,
554,0.441,7298.1,10343.7,14194.6,13378.9,15004.7,20010.7,22242.7,20276.0,44402.5,31438.8,23129.0,178627.6,88492.9,10297.3,50603.7,67454.8,109639.6,35682.2,13750.1,0.0,3246743.5,
555,0.363,9296.4,12360.6,21267.2,18212.9,13690.4,16785.4,20561.3,14879.4,19341.9,19384.8,18294.5,89426.2,32013.4,10169.5,37282.8,65262.6,50098.0,18107.3,15767.0,0.0,2919983.2,
556,0.299,7771.4,11861.3,17883.7,14041.3,13334.8,15186.9,17337.5,10970.8,21285.4,17242.9,9213.2,20155.2,15101.3,7256.1,10271.8,13425.1,14896.2,15973.1,11709.0,0.0,3407576.9,
557,0.479,11232.3,11722.4,11853.0,10507.3,12055.9,14154.2,14714.6,12723.4,25467.8,50313.4,11458.4,171281.4,81660.6,8700.8,31742.2,32807.1,124577.3,21181.5,17283.5,0.0,3283602.7,
558,0.637,13187.6,18539.7,23458.1,22001.3,17271.9,23821.6,24160.5,22368.7,40533.3,24313.9,16912.4,182948.8,55605.7,13630.9,48671.2,45579.6,79028.2,26501.6,20190.8,0.0,3183685.5,
559,0.355,17612.5,27174.6,29917.2,21695.8,22126.9,29851.4,28631.7,9696.8,23534.6,9961.7,19450.4,96275.4,24134.9,9444.2,26648.5,81017.3,77665.6,15003.7,7043.4,0.0,3287147.0,
560,0.318,16727.5,18789.6,23371.7,22635.5,18145.9,21276.1,23643.5,17967.4,32575.1,30837.3,20277.3,150801.0,52168.2,13097.1,55377.0,101564.6,82592.4,23130.9,21455.2,0.0,3439794.4,
561,0.325,12810.6,15851.7,20811.4,17013.0,16937.7,22462.4,22422.4,19731.1,30168.6,36189.1,16237.6,171682.0,87751.5,11985.9,42730.0,44863.7,137041.0,25544.8,16592.9,0.0,3678741.3,
562,0.419,19711.5,22069.6,24340.0,25319.5,25597.5,27190.7,26197.9,29016.5,36298.3,41176.5,20495.4,59604.7,45559.8,17431.7,48134.9,80148.0,76699.0,33116.1,35120.5,0.0,3661687.2,
563,0.511,6375.7,10585.8,13196.2,12716.8,8625.8,11958.5,11366.7,8019.5,10790.7,12027.7,10755.7,14055.3,11779.2,7974.2,11905.7,15783.4,9845.5,13173.9,16248.2,0.0,3369947.4,
564,0.311,8438.3,7288.6,6921.8,8952.6,11481.3,11893.6,11511.5,12241.3,16715.4,9362.6,10798.2,22553.2,16373.5,10699.6,10490.7,19444.1,21414.7,13276.0,9815.5,0.0,3618517.3,
565,0.313,4744.3,4905.1,8022.3,10899.3,6262.7,8964.6,10423.5,9945.4,14141.5,14033.3,4799.5,15820.4,15535.3,4780.6,7381.5,7612.7,15879.1,11714.6,13694.9,0.0,3703737.6,
566,0.4,16659.1,17154.8,18904.3,23772.9,19002.3,20047.9,22689.1,17524.3,27643.6,23613.7,15955.0,36279.3,30934.3,16264.8,19998.5,22514.4,31689.1,28014.6,25561.9,0.0,3689447.7,
567,0.356,19892.3,18847.5,17361.4,15665.1,23063.8,25781.3,21135.2,19940.3,27472.2,22320.1,11211.8,26843.2,21623.7,13398.6,19592.3,27062.9,22191.3,19236.5,18776.5,0.0,3720946.8,
568,0.693,10106.3,9519.1,8299.8,13440.7,7414.6,7861.2,7083.5,8467.4,6752.1,20023.8,19995.1,16167.3,13923.0,15268.2,10220.3,17585.6,14420.1,9543.3,23354.0,0.0,3709291.2,
569,0.359,13899.5,19951.0,26385.2,29338.5,17976.8,21937.2,24377.7,20429.6,24028.2,28429.7,22574.9,20730.7,26353.7,18191.7,22445.0,22057.1,26338.0,27632.6,30406.4,0.0,3723795.3,
570,0.366,12463.0,18588.3,20839.2,20812.8,21470.6,25737.9,25677.9,20437.2,30262.3,45899.2,20790.5,97700.0,52582.0,11719.4,40790.8,86900.8,130335.7,22976.9,20985.5,0.0,3878195.5,
571,0.348,11834.5,16774.5,16809.2,14408.3,17343.7,24644.2,21712.6,11143.9,21533.8,42032.9,26931.8,184052.9,81835.8,11194.5,49362.1,158131.9,240513.7,15265.8,10084.1,0.0,3725443.1,
572,0.445,7929.3,11373.3,11806.6,9485.9,9592.9,11769.2,11779.0,10924.1,20819.2,28441.9,32201.6,277901.1,82832.8,7531.3,89314.3,146967.9,187226.3,13896.7,7584.2,0.0,3756151.1,aftergflow
573,0.599,30765.9,42632.2,42114.4,32080.8,39259.6,43678.4,43433.3,30001.6,58115.8,26150.2,13885.8,186894.9,82288.5,19569.8,44215.9,63693.2,139003.4,43456.7,22454.6,0.0,4050802.5,
574,0.366,10614.8,11941.3,13992.1,12192.7,11064.4,14710.5,15517.8,7817.4,20142.5,27181.4,6092.5,116731.7,56529.8,6996.9,20355.8,39419.4,97721.8,20166.8,13374.7,0.0,4060459.9,
575,0.304,11975.7,15705.9,18113.9,16620.8,12241.0,15850.6,17246.3,11075.7,23065.9,40370.7,20490.0,178035.3,67103.9,7356.8,44075.4,115897.5,166479.5,20310.6,16910.3,0.0,4152389.9,
576,0.371,16452.1,21443.8,21331.0,12474.1,21335.7,25755.8,21329.9,24697.9,33239.5,23118.3,23637.7,126194.9,37054.9,12046.8,56061.5,107615.0,101251.4,17029.0,8295.9,0.0,4233810.6,
577,0.363,23659.9,23877.2,20600.5,20015.2,22372.9,23219.8,21038.4,15402.9,18672.8,21761.9,14507.6,21635.3,19841.3,18189.7,16029.3,25516.7,28816.1,21335.8,18402.9,0.0,4339011.4,
578,0.344,13158.7,18454.0,21826.9,16796.5,14276.1,19907.0,22378.4,6859.4,13495.1,15860.0,32693.3,103728.3,24004.9,5679.1,49958.1,133876.4,91828.2,10290.1,13150.7,0.0,4496025.6,
579,0.392,11964.0,13875.2,19024.3,18214.2,14431.8,18426.6,21141.0,15574.8,20877.4,28323.6,30844.0,114361.8,39673.8,8772.9,46375.5,134080.8,126166.9,19271.3,16714.5,0.0,4302427.6,
580,0.353,15296.5,20678.2,19349.5,10781.3,19868.2,22592.3,20292.3,14682.7,34993.1,24694.9,10666.1,78580.5,49646.1,8369.3,24166.5,90669.7,89777.2,24376.8,12258.7,0.0,4407915.2,
581,0.343,18198.2,22812.4,23706.0,21670.8,27240.4,30780.8,30917.0,27019.3,57822.5,59797.8,20648.7,252041.2,124910.6,14358.7,54074.2,84144.3,208070.9,49437.4,38841.7,0.0,4677328.1,
582,0.453,39096.8,50383.0,54482.2,36975.8,57563.9,69723.7,59447.2,57670.6,89498.8,16301.4,24317.7,144403.9,40656.5,29621.3,62062.8,58314.0,64125.7,46211.2,19730.9,0.0,4844273.7,
583,0.346,11151.3,15035.5,17947.0,14969.9,16420.8,25236.3,22990.8,11653.3,37933.9,37132.3,15138.1,209040.1,91960.2,4064.7,38005.6,114126.0,198031.4,30968.2,12099.8,0.0,4775574.1,
584,0.306,15812.6,24295.8,20980.7,16919.6,23526.9,25974.9,24295.8,21070.4,32531.2,21251.5,20293.3,91822.7,43296.5,6478.1,47186.6,68274.1,43306.8,20210.1,19998.8,0.0,5170035.6,
585,0.322,13688.7,15256.7,17382.7,14626.4,16173.1,18609.0,17773.0,11714.6,19459.9,21309.3,12589.6,72285.3,35185.7,10600.6,17783.1,33822.3,67777.9,16107.6,10793.2,0.0,4890605.3,
586,0.36,19500.8,27122.4,32951.0,26302.9,28149.3,36445.4,35787.6,26310.9,50710.7,25733.4,24955.2,141437.4,71793.2,16158.6,44369.6,61760.5,60962.9,38113.6,18351.4,0.0,5543644.8,
587,0.513,17693.9,19176.7,20830.3,14425.5,19013.5,23117.7,17996.8,12791.0,20031.9,36031.1,22460.0,125923.8,62035.8,9449.2,35585.2,97878.3,186280.9,14805.1,9645.3,0.0,5302252.1,
588,0.516,9746.3,15905.8,22812.7,27125.6,16425.6,26733.7,28578.0,16287.4,25427.2,35416.4,20068.1,87438.1,57090.4,8300.8,23745.2,62097.1,127934.2,39047.8,21500.6,0.0,5094571.0,tension gone wide and back    
589,0.462,23509.8,28551.9,33800.4,38699.2,30880.7,34254.3,43878.3,31543.2,46319.4,103295.4,56779.3,203099.8,157189.8,21350.7,84328.7,164357.5,309706.1,60428.8,56632.3,0.0,5429828.8,
590,0.404,19141.9,22654.2,28308.7,27567.7,29699.6,33075.4,37962.6,27229.9,48959.5,68835.7,14327.0,174478.5,121637.7,12430.1,43934.2,105561.7,278451.7,62554.3,32271.5,0.0,5599769.9,
591,0.421,13301.0,22572.0,27163.8,20821.4,21047.2,27657.2,27114.2,17502.7,24176.9,28344.2,28660.4,89537.0,52247.8,7769.4,39388.4,120420.9,130593.0,19164.7,14477.8,0.0,5484808.7,
592,0.402,10727.4,10293.1,10954.2,8698.5,17625.5,12278.9,11915.1,21018.2,24053.2,34099.9,23250.5,100291.0,48884.8,9925.4,49103.3,117660.5,149712.2,16625.7,9532.3,0.0,5274561.5,
593,0.359,18867.6,22891.7,25074.8,22188.2,24712.2,30696.2,28823.7,20369.9,31193.2,16212.9,10451.0,89753.8,21486.7,11415.0,19084.5,66557.6,104908.5,24799.0,15567.2,0.0,5541484.2,
594,0.336,10395.1,13574.3,15031.5,13775.1,13770.7,17076.4,15258.3,26190.2,43796.0,44390.5,20613.5,258926.3,111730.5,12821.6,72356.0,89600.1,176209.0,37110.3,15465.5,0.0,5402487.5,
595,0.554,40132.3,44837.9,47549.6,36377.5,51724.2,59139.0,51668.4,52204.9,77489.7,49615.6,38543.3,107612.2,68244.9,29179.1,53762.1,79708.5,95969.9,51577.2,34820.0,0.0,5513629.9,
596,0.479,26856.2,26161.9,27540.5,24194.3,28887.4,30516.1,32631.2,25090.3,39579.5,64108.9,19741.7,156791.4,98843.2,26554.4,31453.2,35910.4,153727.1,43184.2,34001.8,0.0,5950801.4,
597,0.602,37737.4,44120.6,47042.7,53783.0,45265.8,56780.0,59691.9,43494.0,82255.0,146123.3,54316.5,373415.2,236958.3,29048.8,111523.9,172097.6,355493.2,94234.4,80221.0,0.0,6103900.6,
598,0.403,29339.2,37138.0,33259.1,25097.9,36521.6,39619.9,34431.1,25259.5,49296.6,20616.8,17729.5,165204.2,52775.7,18576.0,38814.8,36709.4,56313.7,32047.4,16997.5,0.0,5705589.8,
599,0.38,25492.3,36065.9,42521.9,49375.3,37384.6,52027.6,55307.3,29821.0,58358.2,45026.3,33935.0,132342.2,78173.1,17096.3,54781.7,93101.3,158119.5,43279.8,47896.0,0.0,5855425.4,
600,0.606,33533.4,49651.9,57188.4,41650.0,58428.7,67971.9,61577.9,48357.5,93706.4,56491.4,34476.6,200981.5,106060.2,29677.5,60351.1,100776.6,179129.7,59341.7,38773.0,0.0,5726031.2,
601,0.416,24494.0,39363.7,46805.8,43755.1,36628.3,50544.3,49309.1,33849.2,55904.6,65076.0,32337.5,165945.3,98279.3,21166.7,73665.2,151083.2,166165.8,53540.9,52832.9,0.0,6241291.2,
602,0.339,12658.5,15565.1,14572.6,13317.1,13600.5,13663.4,13813.2,20621.8,20208.3,26407.0,49217.1,285536.3,105256.7,12825.9,100716.8,194008.7,188818.0,21274.7,11542.0,0.0,5998576.0,
603,0.317,4119.0,7571.5,9158.0,6951.4,4125.9,8481.7,8398.9,8349.4,15254.2,56259.1,31106.4,284394.1,146154.7,5831.1,73795.6,153749.7,281171.1,18851.7,12134.2,0.0,6205743.0,
604,0.309,8953.1,17100.0,23133.6,19863.1,16180.7,24385.3,22681.3,12136.4,17083.1,26960.0,22814.5,112563.7,45678.5,7506.0,38025.5,97723.9,150075.7,17501.8,16078.0,0.0,6178631.2,
605,0.399,20948.3,29113.9,27707.6,19172.4,34162.6,40701.8,36553.5,30613.5,58376.4,28997.1,11291.9,165709.1,61110.4,15515.7,39026.5,42594.7,101729.3,36943.1,19838.4,0.0,6091045.9,
606,0.321,8979.3,9263.7,18149.3,27320.4,11499.3,17865.9,25055.3,17304.2,41111.8,83740.4,19802.0,241558.2,158839.1,8593.8,57230.3,106521.1,298493.6,57254.6,37406.7,0.0,6252747.8,
607,0.302,9353.3,16218.2,21302.7,19943.9,13626.3,19488.5,21414.3,9844.5,24378.1,30452.3,31142.0,135616.3,59848.9,7113.3,37947.7,104496.9,145859.9,16911.9,15515.1,0.0,6532250.6,
608,0.422,28400.7,35132.9,34713.1,25774.0,38992.9,42316.8,40347.1,38885.1,53470.7,32504.8,28590.6,172378.1,53311.5,28765.4,54001.7,93116.7,99133.9,32894.3,21716.7,0.0,6451371.6,
609,0.362,13061.7,27395.7,33160.1,25997.1,24406.0,38416.6,36171.8,18704.2,41534.2,47011.3,26804.1,195591.2,84150.3,8539.1,68664.7,114167.1,151433.3,33473.0,30417.2,0.0,6407419.3,
610,0.312,25946.8,32606.8,32988.9,24954.4,32621.0,42888.8,36068.3,24658.5,44620.8,27209.6,25613.6,176216.9,71220.9,14624.8,66757.2,112036.6,148798.5,35093.4,24311.3,0.0,6934160.9,
611,0.35,30771.5,32864.7,42166.7,44003.2,37371.8,46738.4,48406.0,41123.5,83209.5,95962.1,43956.8,264285.9,139684.1,24243.1,102692.2,171587.6,222140.7,69484.3,51279.1,0.0,6659147.7,
612,0.359,11511.2,19249.5,27086.7,23862.0,20676.6,32108.2,32794.4,24752.8,62659.9,27945.0,15512.9,160869.6,67318.3,10686.0,44236.9,56113.1,106449.5,39931.9,26798.7,0.0,6371016.1,
613,0.609,17621.6,22897.8,26679.4,29069.9,22196.9,26148.3,30387.9,24850.5,40288.0,86602.8,35916.3,157072.6,118860.7,16366.2,63751.7,116378.0,219471.1,46239.3,44586.1,0.0,6578816.2,
614,0.327,13558.0,20522.2,25584.2,23682.3,18638.4,26987.9,26705.3,15002.0,29104.9,22624.9,27334.0,102635.0,35586.4,11350.0,47809.4,114447.5,106396.8,21105.6,19537.8,0.0,6654492.1,
615,0.322,18787.4,21013.6,21379.9,21695.7,21392.1,25664.9,25640.5,26124.7,55625.7,26957.1,48548.8,166258.0,49393.2,16466.2,94962.7,193971.5,115235.8,28451.1,20521.1,0.0,6511340.3,
616,0.653,20199.4,23052.3,24819.0,25534.8,25615.5,26243.7,27180.1,30081.6,36055.4,36198.9,38767.1,59051.8,40831.4,26014.5,53931.5,88581.2,50712.8,33393.6,36814.0,0.0,6712718.7,
617,0.306,9055.2,11126.3,10992.8,14731.6,13347.3,16717.9,16535.1,15771.1,25348.0,23611.5,24682.9,147070.5,49415.5,10785.4,46503.5,80017.6,68453.3,24352.7,17690.7,0.0,6457064.6,
618,0.367,8855.5,11841.4,11589.0,13296.6,11992.9,13639.2,13483.2,12096.4,16158.5,21097.9,25249.7,25296.2,14685.3,9183.1,25488.1,52139.5,21121.0,12658.6,18602.7,0.0,6541781.3,
619,0.304,10200.4,11631.5,13539.4,9993.6,13896.1,16879.4,14686.7,13528.4,16114.8,19580.5,12067.4,43914.9,22676.0,11185.9,25216.5,59597.7,44898.8,15728.6,14888.6,0.0,6742962.7,
620,0.334,12868.2,17800.8,22476.0,21492.5,16018.4,22772.8,23371.5,14317.6,22114.5,25575.2,12720.5,61592.9,25260.2,11896.2,22037.5,47717.6,18682.2,21124.0,24438.7,0.0,6477705.2,
621,0.316,15182.7,16141.5,20234.9,17479.7,18977.8,21830.8,22238.0,16374.3,24011.9,18246.8,16679.7,61258.9,31116.7,14064.4,20804.6,50077.1,36329.6,22049.9,20964.8,0.0,6236558.2,
622,0.415,19775.5,20285.5,24989.9,31546.8,24336.4,29422.5,33736.1,26335.2,42307.2,40500.3,49779.2,155678.5,68636.9,18812.3,84443.1,180554.4,124901.1,39253.8,35982.5,0.0,6014590.2,
623,0.291,14381.5,16876.7,18267.2,18002.3,17482.4,21192.6,19403.4,17719.7,33713.0,30820.1,28829.2,165466.9,57038.0,14055.1,54439.5,107538.6,133150.8,26440.0,20151.1,0.0,5642677.9,
624,0.325,9579.2,16306.1,15648.3,17701.6,12703.4,16465.5,16946.0,8959.2,24856.6,55279.3,14265.5,129823.2,80054.0,5680.4,29051.6,53118.0,176628.6,26374.6,25274.3,0.0,5771713.4,
625,0.351,6932.3,10789.8,9006.4,10115.5,8127.6,11065.6,8534.3,6946.1,9858.6,40430.1,27518.5,77533.7,46759.7,8002.6,31906.8,91264.6,117264.5,14699.6,19673.8,0.0,5570435.8,
626,0.315,5619.7,12076.2,16436.7,25029.7,8135.6,14132.6,18876.9,6591.9,20775.6,56664.2,13345.0,43976.4,48645.0,5512.4,19280.1,39684.8,74852.7,32174.8,35297.0,0.0,5327640.4,
627,0.362,10937.8,15189.2,19988.3,17048.1,16189.7,22011.5,22456.7,13748.7,28590.7,29890.4,16997.9,59965.0,35862.7,7894.7,27577.1,51139.0,77908.0,23024.7,19074.6,0.0,5217579.4,
628,0.307,8541.9,12895.9,15696.4,14653.8,13376.9,17171.9,18755.2,16214.3,24877.7,43911.2,18245.2,88936.9,68724.6,5866.2,37024.3,78822.9,128256.3,27339.0,23298.8,0.0,4936283.4,
629,0.314,17769.4,22007.0,26902.3,23729.6,21139.0,27572.4,26591.6,18371.5,24588.2,46540.3,17162.0,104610.3,52102.7,11592.8,34615.1,76762.5,133986.9,24619.9,35973.5,0.0,4543231.0,
630,0.348,16748.7,23713.6,33275.5,31908.3,19876.0,30732.9,32852.7,10580.1,28314.2,46948.7,25853.0,131901.1,63270.4,6478.8,53530.4,145591.8,183753.9,29580.0,29056.3,0.0,4623746.7,
631,0.336,14897.3,20484.0,21368.7,25596.7,17755.8,22413.9,21494.8,14353.4,22865.6,16974.7,18437.1,113969.2,36340.7,10604.5,41915.5,83192.5,112850.2,20025.5,27157.6,0.0,4475479.6,
632,0.3,17092.8,23752.7,31980.5,29368.5,24716.9,34503.4,37934.4,15924.1,42392.0,22116.2,11683.5,134008.5,42172.6,12786.8,36382.0,63236.6,102315.3,31258.2,37804.7,0.0,4286033.3,
633,0.38,23206.7,28526.1,27247.2,14433.7,28421.3,32809.7,27088.6,25426.4,50464.5,40948.3,42116.4,222051.5,73883.5,17068.3,98381.9,183323.8,140107.0,23214.8,15299.3,0.0,4074401.3,
634,0.431,18539.5,22899.0,22621.4,19122.4,18410.5,24247.8,23966.5,22347.5,36801.6,36575.1,15883.0,221422.4,84570.2,14681.6,57767.3,52002.8,109636.1,26416.1,24698.3,0.0,4043257.6,
635,0.521,20175.9,26354.6,24195.6,17927.7,31803.2,34251.0,33514.7,42869.5,68016.4,43086.6,23638.0,233537.5,104953.4,19324.3,70148.8,71471.6,148905.7,51281.4,23008.5,0.0,4085819.9,
636,0.305,8337.0,9939.3,11928.7,12124.1,13353.5,16280.8,15964.1,18191.1,37762.6,32409.3,16440.6,120329.0,54060.8,8629.4,38577.1,55161.9,89301.2,22849.6,21447.1,0.0,3855359.1,
637,0.314,14980.0,19710.7,25075.4,18989.3,23018.9,27224.3,26157.8,18871.3,33757.3,45490.9,13745.1,178199.9,94313.7,12768.0,34996.5,59636.5,180217.2,29242.1,21585.5,0.0,3932929.7,
638,0.259,9235.3,12145.5,15585.7,11743.5,14157.4,19311.0,17600.5,9278.9,28921.7,17377.1,14790.4,187769.8,70782.5,7584.4,32508.8,65789.2,125072.7,16464.7,7611.5,0.0,3788614.1,
639,0.322,11201.2,15896.3,18017.6,16890.2,16444.6,20021.5,16120.5,13746.7,20071.2,42054.9,12399.9,114414.7,56501.5,10483.9,26588.0,56626.7,176755.6,16184.3,18734.2,0.0,3807399.7,
640,0.3,6184.4,7036.2,7637.7,10510.6,8488.6,9114.3,10810.1,15318.8,19579.5,22730.4,9655.0,114026.0,55032.0,8640.1,36785.4,43567.1,73617.6,18259.9,17772.8,0.0,4080471.3,
641,0.349,22696.4,25950.7,31965.2,27970.9,29425.3,35892.3,36529.3,27841.1,53358.1,70693.4,24752.0,174487.4,121716.0,17919.5,57232.4,110609.3,225360.3,49254.4,37087.9,0.0,3687824.8,
642,0.492,18005.7,24042.2,34599.2,37111.1,23981.4,33427.9,38459.8,15087.5,28739.6,38269.7,24428.6,147521.5,57969.8,11773.2,54793.0,118708.1,136673.9,34788.8,36237.5,0.0,3935735.3,
643,15.644,26419.5,40022.5,51416.6,57330.2,39556.9,51892.9,58880.6,46111.1,77119.5,43743.5,30175.1,211662.0,97080.8,21863.6,72946.5,122384.7,121149.3,66254.5,66710.9,0.0,4184416.8,
644,0.306,6096.4,4183.2,4808.1,6631.9,5754.6,5334.7,6202.7,7150.5,7244.1,7492.5,13989.9,5330.9,5464.8,10428.3,8777.8,11511.3,6755.1,5608.8,11135.8,0.0,3811763.7,
645,0.821,13621.7,21307.9,22386.6,17996.0,15702.5,16902.2,17006.1,14190.3,16276.9,12779.8,11376.9,14356.4,13965.4,12130.4,14492.3,12529.4,12206.8,14543.8,18511.9,0.0,4047890.7,
646,1.082,23736.5,32893.5,26079.1,13951.8,21794.1,24499.6,19420.6,18332.1,18821.5,17962.3,11795.9,25981.6,23775.6,14669.2,15158.5,14779.2,24516.6,18942.0,16241.2,0.0,3712835.0,lot of purple
647,1.114,15785.2,31440.5,29453.2,20017.0,20283.8,22760.0,25554.1,18316.9,18456.2,9894.3,11658.2,16037.2,13808.8,12185.5,14021.3,13334.2,6749.2,31295.9,13072.5,0.0,3656478.5,
648,0.696,6849.1,10418.2,16544.7,3005965.9,15177.6,18088.8,35425.8,13355.8,19516.0,18505.7,20180.9,32138.6,30921.0,9089.7,23382.7,47992.5,31444.2,73005.6,26146.8,0.0,3589852.3,
649,0.489,21127.4,25020.8,20526.0,52343.2,20833.4,23255.0,19840.8,19298.9,23246.2,33988.6,12748.0,49499.9,27230.3,17586.5,22489.1,50487.5,87564.8,16647.9,14739.1,0.0,3662495.3,
650,0.378,21568.7,27424.5,24480.7,20235.6,23100.2,24832.8,23920.6,20779.4,21511.8,18846.7,17187.9,15129.2,14980.3,19258.6,15991.6,21150.3,16496.9,15341.9,19744.2,0.0,3392443.3,
651,0.341,16931.8,18316.5,19359.1,21360.7,17842.7,18291.7,20416.9,25530.7,22276.4,17334.4,29140.4,34336.1,29003.0,26789.1,30975.3,36996.3,32965.4,23242.2,19207.2,0.0,3646113.2,
652,0.968,9892.2,17842.3,19152.9,14854.1,11618.6,16508.1,15834.5,10084.5,16008.9,20618.9,9609.2,13609.2,18592.1,7920.7,13169.4,25038.1,18539.1,17529.3,18759.5,0.0,3902800.7,
653,1.017,15036.1,21149.2,21133.9,20023.6,15726.6,17583.5,18106.2,13076.8,16968.1,32586.5,27224.6,83116.8,45092.3,12727.0,34334.7,93716.5,103128.9,21526.4,17907.7,0.0,3720883.0,
654,0.352,16981.1,24359.0,24945.7,26248.9,22957.3,26028.8,25141.6,17494.1,22097.3,18678.9,17880.2,39896.4,16058.5,15707.1,35634.6,76213.2,30259.4,21058.7,19006.0,0.0,3843940.8,
655,0.308,10238.2,13994.4,13687.1,11129.8,11619.7,12548.4,10821.5,17561.1,14993.2,11936.3,17724.2,59247.3,21336.2,7998.5,43749.5,61325.2,24617.7,10241.5,9440.2,0.0,3779539.7,
656,0.261,8017.3,7972.6,9754.3,17567.9,7568.3,9115.0,11717.3,11908.1,10110.9,21611.3,18149.5,15385.1,17280.0,13726.3,18208.9,18635.5,17403.4,15236.2,31121.6,0.0,3769667.1,
657,0.522,14100.2,15010.1,18040.1,20736.5,17121.2,18660.4,19634.6,18847.9,19498.1,22144.2,15979.4,21257.6,22627.8,15378.3,20207.8,20565.2,22908.7,21463.0,22621.6,0.0,3905551.3,
658,0.332,10710.6,12972.6,17111.7,16910.1,10273.6,12542.8,13811.1,12703.3,10432.6,25089.8,16392.2,14755.8,18605.9,18214.5,13033.2,12759.1,21615.3,16150.5,25963.9,0.0,4178716.4,
659,0.317,10818.3,15335.9,18398.4,18251.1,13275.4,15857.3,17675.2,9055.1,16808.2,15883.9,11475.7,13870.5,16732.2,11544.1,9654.2,11024.5,15082.4,19882.9,19547.1,0.0,4436927.9,
660,0.33,13574.4,14223.0,11947.4,12483.6,13837.2,14358.3,13308.2,12537.3,13815.1,8195.9,8875.0,14057.3,12079.3,12375.4,11274.3,10020.0,9567.7,12571.0,11499.0,0.0,4333391.6,
661,0.337,13700.1,18192.3,15123.7,13083.0,14471.8,16588.6,13730.2,13907.9,12360.8,10546.9,12332.4,8322.7,8579.2,13586.8,11806.9,14562.4,11800.4,9372.4,12355.5,0.0,4244497.9,
662,0.339,8328.8,10523.2,9814.6,8168.5,12227.4,12007.2,10849.7,11373.4,15432.5,16531.8,6467.0,18148.7,14798.7,7237.7,11632.1,8275.6,15447.6,11811.4,9165.9,0.0,4369803.5,
663,0.367,14162.1,18349.5,18055.1,9968.2,15201.7,16068.7,14997.6,11874.9,14025.3,9002.4,11670.9,8604.3,7080.0,12720.5,10413.6,12519.1,8230.4,9464.7,11247.7,0.0,4489136.7,
664,0.313,10059.2,10067.6,9190.0,9298.2,10012.7,11111.5,10748.0,10050.8,13442.9,17935.1,13762.7,18512.3,14476.3,8590.2,14115.1,39335.3,30572.2,12364.2,10957.8,0.0,4482797.3,
665,0.347,13547.7,17219.1,20586.0,23696.5,16460.7,17575.2,20008.3,14615.4,12589.5,10567.5,13152.7,8186.6,8028.3,12185.3,13397.9,13062.3,7019.1,14699.0,18210.4,0.0,4577742.3,
666,0.504,21456.2,19415.7,18570.3,18991.8,18563.1,19514.7,19861.7,17420.6,19775.9,19035.2,13316.5,16097.5,18990.6,17922.5,15278.0,10269.1,15717.7,18489.0,19764.2,0.0,4624715.3,
667,0.378,12053.6,9988.3,10171.2,13255.1,8950.4,8080.0,7806.5,10749.0,9532.2,10086.3,18705.9,10423.5,7840.4,16598.3,16244.1,20546.5,8575.9,8496.9,16601.1,0.0,4729885.6,
668,0.338,15806.1,14291.0,11288.4,9686.5,14941.1,12898.0,11312.4,14060.7,13288.5,14104.6,15521.4,19518.8,15678.9,13787.7,17073.6,20453.1,14796.4,12492.6,11359.3,0.0,4888461.9,
669,197.39,367315.7,306419.4,81531.0,44189.7,26710.1,16459.8,16355.7,13772.8,25713.9,12403.6,20460.3,23465.1,16778.9,40962.8,21578.2,40953.0,19658.6,14026.4,10898.5,0.0,4952079.5,FRUITION-CALC
670,84.617,23269.0,64594.0,104173.2,41093.0,46523.4,56418.4,54457.2,33169.9,50923.6,25280.8,15331.8,34098.4,31514.4,12109.0,28800.3,55975.8,62142.0,50920.2,40583.4,0.0,4848667.1,
671,4.311,14188.4,12836.2,15131.9,15020.7,11200.5,13763.4,15284.6,9591.3,14329.2,29681.2,20097.1,29442.4,22110.5,10497.5,20669.9,60751.2,69024.9,14563.6,10296.0,0.0,4585653.0,
672,0.616,26594.6,32442.1,40838.6,31046.4,33418.6,40521.6,41953.0,27300.9,48069.3,32820.4,19395.5,83456.6,55994.1,20592.2,32909.9,73119.9,76643.7,41295.7,30595.4,0.0,4475121.3,
673,0.626,21913.5,24508.1,30437.8,33380.0,28394.2,33600.1,37007.0,31452.7,44090.7,56502.3,38187.9,89155.1,86917.1,22268.7,55198.5,93452.0,112472.8,48586.3,38253.7,0.0,4570766.8,
674,0.358,24835.8,25193.6,24008.0,20436.5,31778.2,29760.0,28405.3,44302.8,61938.6,15753.6,50317.6,232071.9,69627.7,27773.5,103199.3,123728.1,53711.2,36864.4,18226.5,0.0,4646048.6,
675,1.005,17015.3,21292.7,26753.5,26193.8,22282.1,25302.2,27515.7,17377.4,33143.1,24427.5,12679.6,50593.9,41774.7,11718.0,22686.0,30547.4,75421.0,32100.2,27411.0,0.0,5071884.0,fruition (impermanence-suffering)
676,1.42,21451.3,31934.8,39053.2,30542.4,25024.6,32060.8,35195.8,16702.8,31725.6,49753.7,13914.2,114118.2,63521.0,13109.5,25638.2,82399.2,180666.1,35931.5,29907.8,0.0,5301306.7,
677,0.458,15005.6,19121.5,20449.1,18054.9,19879.2,22921.5,25177.4,13237.6,27028.7,34043.5,12459.3,107854.0,50931.8,6916.1,23128.4,52908.7,168012.2,19791.9,14596.4,0.0,5195869.8,
678,0.441,13247.2,18153.2,18313.9,11325.7,17130.5,19551.7,16838.5,14006.8,31598.7,28610.0,19598.1,110908.8,34914.8,11637.9,38322.3,110852.5,136585.6,15216.9,14068.9,0.0,5273732.2,
