Time (s),Var Fp1,F7,Fp1,Fp2,F8,F3,Fz,F4,C3,Cz,P8,P7,Pz,P4,T3,P3,O1,O2,C4,T4,A2,ExG 1,notes
1,1.973,13091.6,18246.9,24290.8,24342.7,16280.6,21009.5,23236.5,15886.8,27374.1,27256.2,15128.9,23491.7,21698.4,11012.8,17048.3,26918.9,18786.1,20666.9,25180.0,0.0,4837130.5,
2,1.806,17168.4,20238.5,31050.1,33265.6,17799.9,26335.4,29276.4,19230.2,25231.5,41112.1,9793.9,24496.5,33216.9,16018.5,18683.7,19240.1,36965.9,33410.8,34313.9,0.0,52710.1,
3,2.765,18634.5,36768.3,38617.3,23000.9,31356.8,37600.0,32836.0,21976.4,32506.4,16152.0,12205.7,25685.1,23057.7,14317.2,18474.3,15161.5,18460.2,23431.5,17224.2,0.0,6383474.8,
4,2.821,37778.0,45544.3,44006.1,39003.3,45207.3,42074.7,41864.8,48392.7,44729.6,48813.9,26178.2,52297.9,45821.3,25515.1,43892.2,43242.4,50963.5,41627.3,42477.7,0.0,61625246.5,
5,1.478,42601.7,52820.0,63453.5,76601.6,53972.2,63503.8,67311.2,50372.7,64967.1,99509.7,16569.4,53883.4,78848.9,24630.4,39044.8,41632.5,83501.2,80632.0,94046.8,0.0,594356685.4,
6,2.015,34265.4,57329.5,72104.3,81335.7,42420.9,56760.7,59096.1,46100.3,50321.8,56967.3,13671.3,70049.6,61760.8,16605.5,37962.9,42411.8,60088.4,57856.1,60918.8,0.0,29047092511.4,
7,10.131,119817.7,219357.9,217190.4,140747.1,119367.0,132053.5,129518.5,87915.5,139491.5,160756.3,70102.4,136208.6,136876.5,48425.8,98949.9,134487.7,171059.1,128506.9,152445.3,0.0,6178951937.2,
8,16.492,56551.0,52672.2,98266.6,65173.0,46495.0,58400.4,53062.0,40197.2,65990.6,55618.3,543609.4,56021.4,55663.4,21651.8,35732.8,56087.0,63474.5,56553.8,57263.3,0.0,708374352.5,
9,4.436,52417.3,89271.2,176846.5,88586.3,52902.8,73952.9,79282.8,43323.2,58690.1,68918.8,58135.9,70383.5,63019.5,34675.6,58208.9,78394.1,68384.3,69523.4,67153.8,0.0,2587538691.5,
10,11.492,43642.7,180828.7,203414.6,48725.2,47516.0,59165.2,58022.8,110775.4,33289.5,27733.0,21478.4,40951.9,27963.8,26829.1,26811.2,35881.5,32434.4,23726.3,18106.1,0.0,608626787.4,
11,9.698,11343.6,196745.4,290197.8,75775.3,38252.7,70584.0,74005.4,13723.7,26199.3,32687.9,19711.7,20428.1,23542.1,18369.1,16249.3,27502.5,26221.9,31869.2,30966.3,0.0,77520592.5,
12,13.321,49367.3,466431.9,418653.6,61769.7,103469.6,124480.1,100465.9,22068.9,35231.8,28709.8,16484.3,21923.2,27272.9,15665.8,22523.9,27936.1,24345.7,36535.6,32739.6,0.0,428454016.6,
13,4.98,15763.3,46179.8,43010.7,22920.3,19566.1,20566.6,20469.7,23628.5,22712.4,13385.1,15874.0,24771.0,17836.7,15456.7,21654.4,15199.7,14278.2,18305.6,14397.3,0.0,762813346.0,
14,1.24,20815.4,23859.8,24065.5,28006.8,23392.1,25958.9,27856.6,23921.7,25303.3,21120.3,21209.6,23797.7,23692.8,21052.6,24692.8,24979.5,22746.1,26347.2,32774.4,0.0,79113556.5,
15,1.54,12139.3,18300.0,19861.3,18443.0,17355.3,20949.2,23847.5,31538.4,25781.2,25898.0,15824.4,25429.3,25338.8,14472.9,18512.4,22703.7,27849.4,23141.9,29535.8,0.0,5039443.2,
16,1.376,3849.3,6554.7,12591.2,19643.8,4357.1,7656.9,10900.6,4521.9,11283.9,26744.2,7582.5,12586.4,17491.0,6997.0,8420.3,11758.4,21571.7,17617.9,35806.1,0.0,532885379.7,
17,9.593,74607.5,111759.2,75836.5,53747.8,67913.3,61026.2,58650.0,48121.7,66771.6,77267.2,28468.4,72426.6,66645.7,28643.2,51128.9,57090.4,78466.8,59413.1,56401.8,0.0,174380784.3,
18,4.248,32963.7,34377.2,50474.9,52221.0,35079.1,41214.2,44448.4,37236.9,51179.9,47356.7,26670.9,51566.7,49556.6,20271.0,39309.2,44542.2,51901.8,50315.6,48942.1,0.0,165384542.5,
19,5.68,68708.3,57390.7,68837.4,88414.2,47976.8,56932.1,64817.9,54779.9,61869.2,81020.1,35964.6,84258.7,71252.2,25685.0,57822.1,78721.0,86883.5,73095.2,84445.8,0.0,500479716.7,
20,9.133,177556.7,181399.8,176629.6,201705.2,157595.5,177930.1,179737.1,127923.8,176820.1,207821.3,81931.6,182361.7,191364.3,86550.2,136556.3,175137.2,221343.1,190937.5,205801.8,0.0,124443049.5,
21,2.649,12094.0,56915.1,74212.4,35197.6,30526.7,38620.4,37249.4,32914.7,37793.5,42624.5,31141.1,35099.1,182481.9,16954.6,28275.8,42473.0,46163.6,37798.3,33095.3,0.0,46056260.8,
22,0.458,17729.3,17911.6,54697.8,952037.7,18968.3,21970.9,25848.6,22410.0,21383.8,40001.7,18837.9,29190.8,170888.9,13835.9,23583.4,26092.7,32154.6,29193.5,46886.5,0.0,717964271.9,
23,1.13,10822.4,19629.8,24255.2,31885.6,18398.0,24628.2,26521.0,16856.8,25313.2,30410.8,16691.8,21213.1,26484.2,8217.3,17758.6,17105.9,30282.2,25573.2,26120.9,0.0,2391047415.9,
24,1.843,34622.1,108955.2,161020.4,77773.1,49902.3,63925.5,71908.5,39229.8,48095.8,49788.5,23719.3,75392.1,60376.0,23394.9,38828.7,49532.2,60802.4,52112.6,45911.7,0.0,4101671020.6,
25,4.855,17867.6,18011.0,27922.4,32977.4,17207.7,23306.7,25741.0,17822.3,25130.1,29705.2,10787.5,22727.5,27605.9,17995.3,16378.5,13030.3,28405.7,25210.5,32078.4,0.0,6764700678.6,
26,3.001,73151.8,15818.5,18623.8,24525.2,19155.9,16585.2,15353.7,26836.7,19113.5,13804.8,20848.6,20863.7,16359.1,24862.7,24324.0,32283.1,24390.8,17481.0,12440.6,0.0,621097807.1,
27,1.063,12015.6,12037.7,14114.7,10315.2,16068.6,14473.1,13297.0,17170.5,16576.5,17218.7,16672.8,26119.9,19023.8,14282.9,21504.9,25701.0,30663.1,13174.7,12120.2,0.0,299172707.0,
28,1.614,22676.9,22796.4,8894.4,20117.6,11679.5,9158.9,9174.7,8574.8,7770.3,11762.5,3746.0,7141.5,6952.6,6662.8,4648.7,8218.5,12327.8,10818.4,15863.9,0.0,2097705546.5,
29,0.819,7765.8,50405.5,63653.0,10452.0,11625.4,12112.2,16747.3,19387.6,19408.3,16794.5,8679.6,17314.8,15998.6,7849.0,14004.2,16592.3,21410.4,22200.5,12529.1,0.0,1611623818.5,
30,1.386,13961.0,25683.7,65348.7,63764.8,12795.5,21229.6,36234.4,6324.8,14472.4,23026.5,6691.0,15247.3,16329.7,15985.3,7265.2,13138.5,17686.9,24782.0,38771.7,0.0,177393901.0,
31,0.48,10637.0,11409.1,23776.9,25577.8,13410.9,18074.4,19006.0,11001.4,18372.9,28083.6,8589.1,20523.3,23613.8,7498.3,11015.6,12745.4,18430.9,22734.8,34712.0,0.0,44720742.0,
32,1.652,11007.1,19649.4,56870.9,62725.2,13705.9,21318.0,30007.2,11425.8,14008.6,32633.5,12203.8,19052.3,15910.2,12494.9,15149.0,18082.7,20702.7,19412.5,36335.8,0.0,20003171.5,
33,0.391,16472.5,16766.2,18430.5,14887.3,16260.2,18317.1,23249.9,16194.9,20109.8,16700.3,12315.0,19084.8,20052.6,14385.7,14316.9,13528.5,18576.3,34935.0,21818.0,0.0,33007939.2,
34,0.903,8573.6,26341.9,23133.6,8935.3,10764.7,12772.9,11972.0,6484.5,11424.9,5315.5,6582.3,8509.1,6431.0,6014.8,6754.8,8062.5,6251.9,12132.0,7050.6,0.0,1695508086.3,
35,10.062,20615.7,26346.9,40662.7,39110.2,26298.1,34320.3,34878.9,26125.3,34291.9,38641.7,25770.1,28990.0,30869.5,22757.2,28878.5,28244.4,34704.6,38486.6,41275.1,0.0,55820684552.7,
36,12.194,24829.3,64086.3,67468.3,44436.3,31505.9,36751.1,38048.3,22218.0,30230.1,25019.1,21176.2,32303.0,32288.8,16233.9,25807.1,29528.8,29549.0,40395.9,23580.9,0.0,908242614.1,
37,0.439,25849.6,36743.2,22965.8,35713.3,22267.4,25621.3,33131.4,15421.7,24784.7,24124.7,14970.2,23637.5,31133.3,12746.8,16814.4,18963.6,22545.2,48374.3,22112.3,0.0,246513085.0,
38,0.621,14730.1,22212.9,30214.0,26011.3,25439.1,30355.4,34133.1,21947.9,39632.3,40163.4,22244.7,28836.7,38387.0,15988.3,22163.0,19008.5,31999.1,44036.7,46955.5,0.0,3418690903.7,
39,7.521,16201.3,17215.8,18118.3,24122.5,24124.6,28823.2,25850.9,24248.1,30936.7,41344.8,30106.3,41475.1,41577.1,20745.5,33386.6,45517.4,48926.9,42398.0,34465.0,0.0,29449109165.7,
40,4.748,8293.5,13642.5,16119.3,14709.6,15017.6,16481.9,14364.7,15186.6,17344.3,15164.7,11510.2,16536.0,14134.1,8326.1,13205.5,14483.3,13547.2,14846.1,13479.0,0.0,131703636.5,
41,3.3,6520.3,7850.5,6071.4,9871.9,9246.2,8533.2,7776.1,6688.2,11453.9,10553.8,6036.2,11955.3,11359.2,4879.0,9112.1,8763.2,12904.7,9299.3,11181.3,0.0,90252155.1,
42,5.382,15043.6,49106.1,23624.2,10285.6,19251.0,15322.8,10197.7,13368.0,11955.1,16001.5,9874.3,11942.9,12467.3,7811.9,11431.2,12823.8,15281.3,8004.1,10854.2,0.0,224711865.7,
43,4.417,17072.8,117823.6,191813.2,53147.2,18164.3,27980.2,32993.7,5412.4,10218.7,21231.0,4717.1,10117.4,18135.0,4037.9,5822.8,6328.6,13779.6,22835.8,29994.0,0.0,130036762.4,
44,1.424,13255.7,16275.3,30462.3,35450.4,12643.5,17683.6,20098.9,8865.0,17075.5,23953.5,7790.9,22884.2,23630.3,6866.5,10115.0,16578.4,27755.5,16482.0,27294.6,0.0,2216132007.8,
45,2.052,12901.2,18986.0,19496.1,12789.0,15149.6,18403.7,21025.2,12859.7,21003.8,14342.6,10577.7,19816.9,17521.3,9802.3,14280.6,14401.9,17743.9,18479.5,13117.5,0.0,46665210.5,
46,4.115,17489.2,10217.0,41864.3,49974.5,8898.3,19041.2,25873.9,7221.3,13072.5,14178.5,10722.0,13000.1,12586.1,8748.9,9194.5,15196.2,12937.4,18814.8,21058.7,0.0,2967364645.7,
47,6.614,26603.1,27836.8,23690.4,20217.6,20406.4,20499.6,18388.1,16404.7,18433.8,20223.1,13973.8,25905.6,24151.3,16937.2,16899.6,23660.4,25185.7,24629.4,18403.0,0.0,559085837.5,
48,4.375,20448.7,60427.9,88084.3,53054.4,23711.2,31623.4,34557.0,18354.5,17595.5,12385.7,8333.4,11645.5,13762.7,12424.4,12735.0,9308.6,14353.5,21656.4,19130.0,0.0,704933244.2,
49,1.002,13441.9,21886.5,22174.2,16700.0,16809.0,21445.6,21364.7,11427.5,23135.7,17592.0,15981.0,27569.2,22728.0,7738.9,14750.5,23875.4,27086.2,22434.9,13194.9,0.0,94831895.8,
50,1.094,6683.9,10202.6,26030.4,23247.6,11154.9,17224.0,20831.3,9517.3,12631.2,10491.7,8953.3,12775.9,11942.1,11690.0,10362.7,12086.4,11617.2,16071.1,24573.7,0.0,148151197.6,
51,0.601,12582.9,14996.5,19157.7,23091.0,16403.8,20066.7,21644.7,18289.3,23105.5,27430.4,18374.4,24392.4,24618.7,13637.5,17911.8,27675.4,24223.5,26858.3,36435.8,0.0,19540033.9,
52,0.531,7525.2,11035.7,14915.1,21366.2,10633.2,14562.3,16170.2,10829.1,18741.3,23912.6,13220.8,19231.2,20355.9,9507.2,12428.9,15593.9,19098.1,21408.4,24199.5,0.0,119685091.0,
53,0.726,10037.7,16105.1,19279.7,14580.7,15443.5,19693.2,17418.9,14233.8,21541.3,11958.7,7740.3,21514.3,14344.6,8556.9,14601.2,15597.4,17917.1,16897.8,13605.6,0.0,33535263.3,
54,0.844,11739.7,11414.9,11596.5,13542.0,13413.6,11650.6,12146.9,13950.2,14705.5,10062.3,13398.1,13854.2,11632.3,14820.6,14331.9,16724.7,11742.4,13884.8,13961.1,0.0,218718.9,
55,0.472,9600.8,9863.0,11625.4,13770.8,12583.5,15188.6,13617.7,13646.7,17352.1,16048.3,12403.2,24787.7,29486.7,11048.7,17007.0,16658.8,21643.4,18722.6,17894.3,0.0,432330.4,
56,0.461,32727.5,31761.1,29152.6,27441.6,32051.6,33521.6,33121.4,29365.3,35442.4,29329.3,24180.4,29245.8,32323.9,27630.4,29590.1,26978.0,34592.5,32936.2,32078.8,0.0,151882.8,
57,0.428,11493.3,12512.7,15219.2,19098.9,14750.7,16353.4,17471.2,16408.2,16214.0,12421.4,14108.5,19112.6,15294.8,11765.1,16483.8,18459.4,15193.3,17545.1,15948.3,0.0,327111.8,
58,0.459,13734.1,14141.0,15116.0,12184.2,15135.0,16411.8,15430.0,16069.1,20236.1,16270.5,16086.7,15980.8,12727.5,16614.7,14664.8,15856.5,11533.8,15111.6,15148.5,0.0,155720.7,
59,0.304,7536.3,6471.6,6734.7,10935.2,6368.9,6574.5,6323.8,7747.3,8172.8,19164.4,8082.7,15005.5,14091.7,8505.4,12897.7,9230.3,11036.0,11307.6,22161.0,0.0,119520.3,
60,0.429,14236.3,15850.7,15654.5,11515.6,16176.7,17534.1,15253.6,15721.8,13905.5,8712.4,13643.7,17748.1,12463.2,13530.1,15228.8,18041.7,13455.4,11865.1,13341.3,0.0,158849.8,
61,0.446,9853.6,10790.7,10645.7,8959.1,11270.1,12566.5,10328.5,12743.0,12713.5,10825.7,14742.5,19245.1,11823.2,12015.1,15108.7,22138.6,14985.6,10153.5,9703.6,0.0,120017.6,
62,0.307,10136.2,9520.2,12481.7,11933.5,9849.4,11998.1,10435.0,9708.2,9461.9,8458.4,12582.2,13533.9,7834.8,9394.2,13699.9,13265.2,8858.3,8510.9,8004.4,0.0,166371.8,
63,0.4,15048.9,14852.2,17727.0,13528.1,16324.8,20506.3,17573.5,17189.7,20964.8,10457.9,10699.5,15451.6,17577.0,15055.1,14111.2,10692.7,13057.6,16904.6,11524.5,0.0,85059.7,
64,0.446,16976.6,18146.3,17542.6,14936.3,20744.4,22599.9,21316.7,18918.9,22711.6,18752.2,12450.8,26786.8,23156.3,15085.9,19202.0,22445.0,22993.8,18831.5,16263.2,0.0,92657.8,
65,0.3,4092.6,5728.2,6454.7,6125.0,6105.4,8202.0,7699.0,4445.4,8094.1,8554.8,6270.6,10074.6,8247.7,4707.0,8607.6,7184.6,8009.8,6619.4,5754.8,0.0,125416.1,
66,0.367,16371.5,15780.1,15775.5,13436.5,17173.9,19402.7,17748.1,16785.8,18600.6,17655.5,25398.3,17790.5,17656.4,22050.2,19149.9,18771.1,13126.0,16726.7,21089.5,0.0,142706.4,
67,0.388,8652.9,14234.0,16984.7,17161.3,16030.8,17819.1,17050.6,10606.4,17193.1,17387.3,7299.8,15504.7,17689.5,5286.3,9514.9,8718.9,18054.7,16301.7,19695.1,0.0,117937.4,
68,0.61,17346.7,23964.1,24883.1,21384.6,23999.3,28283.2,25580.1,18765.8,25878.5,15216.6,20860.5,27750.3,17126.6,16341.2,23224.4,29409.8,18004.7,17792.0,17875.8,0.0,107654.3,
69,0.231,14341.5,15217.1,13528.1,16534.7,18701.8,18368.2,16953.3,19117.8,22410.7,14370.8,10941.0,10845.4,15074.3,14507.7,13181.2,12843.2,8545.0,18946.5,24782.8,0.0,151709.2,
70,0.3,5673.7,4908.9,7217.9,12766.7,7205.0,7311.5,7419.0,9409.4,9672.4,18477.1,11389.1,7760.2,11054.5,9198.4,10110.6,13231.9,10619.6,12693.9,25367.7,0.0,136407.5,
71,0.403,15088.8,22036.9,27426.3,24993.6,26787.2,30291.8,32239.1,20415.7,29234.8,22500.0,24542.1,18391.7,22265.9,18259.4,22852.2,31678.9,19347.4,28288.1,32460.4,0.0,118880.7,
72,0.306,9239.8,12842.6,11620.2,12009.2,12522.4,15083.0,13840.6,11597.2,15561.6,14260.9,14012.8,13977.1,12370.7,10786.7,10144.3,12045.5,11954.0,13527.6,15301.6,0.0,187438.2,
73,0.515,8307.3,9071.6,10473.6,9244.7,10696.3,11609.1,11288.6,11929.9,16872.2,12477.5,13603.1,20153.4,14389.8,8618.7,19030.7,30492.3,13589.1,11339.6,10298.6,0.0,108511.4,
74,0.714,10146.9,12568.0,13744.4,14091.3,11364.6,14883.3,14310.9,12051.7,12729.2,15577.6,18811.9,19181.5,15786.3,12855.8,17518.9,22376.7,19223.8,13343.1,16878.3,0.0,142441.8,
75,0.324,13834.2,11189.4,10603.9,10626.5,10827.6,10847.1,10952.5,13436.5,12805.9,16659.8,21127.6,29222.3,21104.2,14573.9,22363.7,30620.1,22344.3,15685.1,14361.4,0.0,127311.4,
76,0.367,16360.3,19426.3,17329.3,18614.1,22147.8,23420.7,20319.9,18368.2,20912.6,22253.9,12399.5,21352.3,22237.4,12867.0,17229.4,15104.3,21560.2,19677.1,24877.0,0.0,99407.4,
77,0.312,12126.7,14956.2,14722.3,9504.0,16326.4,15620.0,15423.0,13320.6,20495.3,10040.3,13842.3,20444.7,11289.0,15692.6,15140.3,19372.8,19460.1,10203.2,10532.7,0.0,133185.5,
78,0.406,7375.9,9520.6,7869.9,5608.1,10295.7,10396.1,9007.0,8240.2,11227.9,11945.2,5894.3,6544.8,7198.5,4255.5,7953.4,11376.2,11478.4,7144.3,11387.1,0.0,103735.2,
79,0.365,9167.7,10940.9,9931.9,10309.3,9162.2,9209.7,11694.2,8595.1,10986.4,12751.4,8660.3,10329.4,12415.1,8671.1,8451.3,12590.1,11191.4,9807.7,15981.1,0.0,134931.9,
80,0.344,10728.6,12471.7,11752.9,13015.4,13100.0,13604.8,13085.6,13258.7,12807.4,12077.7,8929.4,14225.1,14492.6,9775.6,11003.5,11844.9,13734.7,14530.6,14731.5,0.0,121781.4,
81,0.395,9070.8,10900.4,11209.5,10089.8,11371.6,13358.8,10339.3,7567.2,10077.4,11710.0,9370.4,17770.6,15368.6,8888.5,6455.2,11410.3,17157.0,9920.7,10199.7,0.0,173764.7,
82,0.45,8902.7,11086.2,10367.5,9979.1,9219.1,11116.2,12642.5,6489.6,11116.0,12665.6,9402.9,18340.0,11883.2,6878.1,9868.5,17275.0,21171.4,10120.8,15242.5,0.0,141341.4,
83,0.379,13500.2,18849.2,18557.5,19036.3,19115.1,21658.5,20661.4,16400.5,23910.4,15580.8,12984.1,14298.0,16827.8,16695.3,15283.0,11290.4,13304.7,18365.9,20349.8,0.0,167437.2,
84,0.25,6125.1,9451.7,11693.0,11769.3,8986.0,11081.2,12123.6,8588.3,11946.1,19039.0,6670.0,15819.3,19231.2,6432.3,8715.2,10402.6,18155.6,15199.4,18027.1,0.0,115909.9,
85,0.316,7742.5,5886.7,6972.0,7475.7,5697.2,6704.8,8177.6,5297.9,7745.3,9555.5,8314.9,8276.6,8598.1,9779.2,6499.1,7485.1,10047.2,7135.8,8085.3,0.0,182229.2,
86,0.472,12807.3,13136.1,14654.6,18763.5,14454.4,14712.5,16827.4,20837.3,24138.6,18953.9,12580.8,24037.9,22267.3,15238.1,17377.2,16821.5,16649.5,22334.4,22677.6,0.0,138425.2,
87,0.32,11218.2,12525.1,12894.3,12278.3,13726.3,14533.8,14902.2,13199.7,14804.5,15815.0,17301.2,11285.1,15231.6,14846.1,10603.5,10945.0,18008.7,13954.5,15475.3,0.0,85709.7,
88,0.467,5010.3,7872.2,8248.2,10637.9,7731.2,10369.5,11956.1,6316.2,13190.8,20720.6,11245.9,29231.5,21902.6,7532.6,13176.8,26550.5,32303.5,13693.2,11972.4,0.0,137046.7,
89,0.453,5741.6,7202.2,9131.6,7872.9,8107.4,10355.7,10521.6,8900.3,9285.2,6330.9,9671.7,35015.5,10264.0,5547.7,21209.9,30221.3,17204.4,6699.1,6621.0,0.0,116757.7,
90,0.297,8666.4,11180.6,8135.2,8315.8,10976.8,9872.8,11184.2,12623.7,11287.7,8162.9,15108.5,15967.3,8724.1,12274.6,17346.4,22326.7,6109.4,9485.2,11261.3,0.0,155953.3,
91,0.312,10804.9,11414.2,14378.0,12235.2,14701.0,14884.6,15741.5,13722.3,16322.5,9220.8,13210.2,11654.3,8494.1,10883.7,13171.0,13805.3,7449.6,11155.0,10981.9,0.0,180814.4,
92,0.381,7537.6,7204.5,6975.9,9528.4,6843.2,8847.6,8711.1,8352.1,6454.0,16285.4,10836.0,15114.7,10095.3,9082.8,11114.3,11592.7,11348.4,8676.2,17787.2,0.0,148632.7,
93,0.247,7355.3,12247.1,12599.5,14654.9,13251.0,15970.8,17072.5,8024.8,18475.0,15916.7,13646.5,13728.0,13179.0,5000.0,10082.1,23203.6,13078.2,16874.3,19659.6,0.0,98212.0,
94,0.259,15211.5,14756.2,17250.0,15906.9,19397.0,20079.5,19274.2,22297.8,21017.9,19107.8,14026.7,20636.4,15699.3,17048.8,20521.5,17794.8,17627.3,18096.8,17770.7,0.0,126442.0,
95,0.314,17750.1,16462.5,14171.0,12387.2,18141.6,17040.3,16604.5,19640.5,16243.1,13549.8,26533.1,24803.8,17362.8,21996.4,26674.5,36177.8,20330.6,15764.3,15848.5,0.0,129566.6,
96,0.309,9635.7,17328.4,19264.3,24422.6,17756.3,20582.8,18452.1,15460.2,22131.6,21087.7,12558.1,27285.6,21979.5,8748.0,20911.4,30584.6,25470.9,20825.3,30304.2,0.0,124155.6,
97,0.318,8314.5,10871.6,12340.1,15439.5,12827.8,15887.9,15283.2,11686.3,21211.4,18734.7,12242.3,20034.5,24464.7,6874.6,13335.0,13906.9,18278.0,20378.9,16797.8,0.0,135145.4,
98,0.378,11907.1,13508.8,13439.2,13386.8,10691.6,12019.3,11850.2,12066.6,12104.5,21075.2,15584.0,25371.9,27206.8,10324.2,18105.0,23474.5,26601.6,22004.1,21902.2,0.0,115054.4,
99,0.294,10758.4,15294.7,18731.8,18503.8,15473.6,20206.8,21262.9,15095.2,18161.9,15216.4,16552.8,13737.8,14873.3,15626.8,14762.5,16432.4,13882.9,16520.4,17583.3,0.0,123203.6,
100,0.454,6927.8,7661.8,14572.5,15505.8,10353.5,14450.6,16949.4,13924.9,20736.5,15782.6,14350.7,19376.4,16199.5,10648.2,14812.1,18495.8,17554.7,16303.9,15642.0,0.0,140553.6,
101,0.365,9485.9,11046.6,13797.9,14755.9,13465.5,14742.4,15222.8,17734.3,18271.4,17401.6,15662.2,20920.5,19103.3,16427.6,18010.5,16901.3,20441.5,17900.6,19302.0,0.0,109786.5,
102,0.402,6282.9,6567.0,8004.0,8969.1,6158.6,7626.0,8453.8,7040.7,10077.4,11124.0,8495.2,10293.7,9761.3,8263.3,8937.0,11859.0,12603.9,7864.2,10141.9,0.0,135401.0,
103,0.212,9616.9,9875.1,13018.3,11334.7,11590.7,14931.1,15674.0,10480.1,11212.7,18847.1,11477.5,11179.0,14603.6,12022.1,9632.0,12912.7,14494.1,11707.7,18978.3,0.0,142114.6,
104,0.326,11692.2,8952.4,8194.7,12972.3,8241.0,7620.0,8146.9,7949.2,6854.3,12216.7,5990.8,5475.9,8875.6,9921.3,6054.9,5681.9,9128.0,8360.9,14743.0,0.0,124919.4,
105,0.259,12616.9,16187.0,21956.0,22304.3,15290.2,19260.6,20989.3,15689.2,21348.7,19560.4,11600.4,19247.0,19708.1,12581.0,18340.4,18994.8,19735.9,22598.4,19433.3,0.0,128191.9,
106,0.301,9000.9,12233.3,12007.4,11671.0,13078.0,14612.7,12463.6,12713.2,10717.0,18010.5,12465.3,10534.0,11112.0,11002.8,15105.6,16130.5,13906.7,11779.6,19842.4,0.0,106762.3,
107,0.22,7787.6,11327.1,10838.4,12209.2,8080.0,9828.0,11518.5,6631.4,8479.1,19787.9,3265.3,8490.3,14438.3,4284.0,4846.3,6149.6,10355.1,13744.2,24203.2,0.0,118829.2,
108,0.192,14340.2,19277.7,20591.8,18312.0,16821.5,17370.3,19986.5,15215.5,16827.5,12678.3,16382.8,12283.0,10538.4,12518.6,13524.4,19610.4,12794.2,13994.1,12804.1,0.0,155759.7,
109,0.252,5465.2,6979.2,7866.7,9157.5,6380.8,7759.6,9054.4,8023.2,8995.3,11094.6,9451.3,48643.0,10924.9,4821.3,21787.5,35358.5,15241.4,7823.9,12431.1,0.0,118309.5,
110,0.448,17997.8,17389.6,17532.6,15925.2,19869.5,20004.1,20130.1,20997.4,21894.1,25190.3,18433.8,42609.7,32556.6,21114.6,17963.6,23263.1,37389.0,20709.2,21767.3,0.0,99910.6,
111,0.248,8551.4,10190.2,10254.8,12841.0,10308.1,11682.9,11612.9,16279.0,17807.6,14667.0,28202.5,35927.0,16788.8,13919.2,30236.2,44014.0,19778.6,13000.2,15454.2,0.0,132576.0,
112,0.299,10561.7,8948.5,9662.9,10283.0,8077.8,10843.5,10941.2,13147.1,20112.4,17527.8,10400.4,45729.2,20749.1,11240.0,14638.1,22071.5,30808.0,13156.8,13972.7,0.0,80596.4,
113,0.366,10903.1,9460.1,13435.9,14748.2,12608.1,12506.3,13650.2,13149.8,10874.8,21704.5,16087.0,17778.4,17989.2,16766.3,14452.0,24052.1,23231.0,16718.7,21509.8,0.0,103908.8,
114,0.457,15697.1,20601.2,22405.3,21342.2,20575.2,21570.3,25764.2,21342.1,24353.6,26387.2,15695.4,31696.2,24407.2,20348.7,26486.4,37291.6,24545.9,24713.4,29241.7,0.0,102776.5,
115,0.307,8858.7,10976.3,9559.2,9883.8,9674.9,11649.4,12200.8,9160.7,10900.0,21049.7,9367.2,16363.3,13131.7,8227.4,8807.1,16277.7,25420.5,10693.5,17743.9,0.0,108494.8,
116,0.336,10037.0,14457.7,17344.9,21204.5,14325.4,16575.3,19727.5,11961.2,20514.7,30698.3,12260.4,60298.7,31375.7,7066.0,26055.1,47911.0,27711.8,23935.3,27610.3,0.0,72670.0,
117,0.308,7798.6,8792.2,13032.8,14616.2,9106.2,12603.8,14098.4,10455.7,12126.9,15354.2,9030.5,14206.6,13352.8,8216.7,11699.5,12134.2,27336.1,12110.7,12037.3,0.0,76467.3,
118,0.202,5557.3,4885.0,5597.4,7535.0,6362.7,7355.2,8906.3,7089.8,14438.9,12153.1,9601.0,12596.4,12858.9,6742.3,10934.8,15986.1,12131.2,11944.4,12378.1,0.0,97561.6,
119,0.284,19758.1,24139.3,25211.6,20996.6,24376.1,29094.1,28581.1,23926.0,36859.3,11032.5,14163.9,21191.4,17873.3,17534.1,16925.1,11825.6,12653.8,22522.6,19316.5,0.0,118448.1,
120,0.328,13806.3,16615.9,14981.5,16519.6,14736.8,13081.1,13914.9,10884.2,11812.0,17057.5,12372.4,11089.7,14188.3,15672.5,10806.3,11294.7,15001.0,14864.6,25800.5,0.0,96281.1,
121,0.337,11495.9,15806.9,14890.9,13453.4,15259.2,15803.1,16322.6,11331.4,13700.5,19271.5,14222.7,17126.9,12452.2,12237.3,14314.2,21650.5,15416.2,13756.8,19753.0,0.0,115708.8,
122,0.242,6880.7,6751.6,8738.0,10098.4,7632.0,7748.3,9747.1,9824.1,8466.6,11286.6,18652.4,19587.4,12419.2,9549.2,16483.4,27189.5,8589.2,9625.3,9328.0,0.0,108328.1,
123,0.293,17160.5,17917.1,17945.1,16329.5,20421.7,20127.9,21660.8,15787.8,25079.4,27682.2,9893.9,18779.0,27207.0,13539.7,11602.8,14393.7,19936.0,22223.1,24612.0,0.0,91161.8,
124,0.358,6726.6,11340.2,11874.4,19571.4,14458.4,16866.3,19803.6,18589.8,31334.6,21514.2,10875.4,30168.2,31544.2,12669.7,16284.0,10813.9,31274.2,25863.9,20850.7,0.0,89548.7,
125,0.187,6095.3,7075.8,10181.6,15560.4,7812.8,12449.9,13961.3,11301.1,18784.4,17089.0,12644.2,24884.5,22149.8,8793.2,17694.6,19510.6,20631.3,17132.5,18537.6,0.0,86683.1,
126,0.532,12869.3,15223.9,19989.7,22690.8,17170.4,18967.4,19001.9,20455.3,19713.1,24750.2,28230.7,28849.4,21274.8,15978.1,31096.1,36493.5,24576.1,21790.0,24136.6,0.0,118439.3,
127,0.266,10796.5,11003.7,10232.2,12222.7,9402.2,11844.4,13174.1,10273.8,12387.7,20415.2,9858.5,23181.9,19142.5,9067.5,12138.5,15337.3,24576.7,14482.1,19786.5,0.0,98111.5,
128,0.281,13938.7,14144.1,13470.4,13224.0,14370.8,16862.6,16998.7,20184.5,23624.6,20447.1,20395.2,40559.9,28472.0,17499.5,25244.9,26560.3,27319.9,21016.9,19084.2,0.0,107836.7,
129,0.216,5081.2,7697.7,8820.7,9757.5,7597.1,9626.2,9776.8,6165.5,8094.6,16886.5,4009.3,6437.0,12073.2,6396.0,4780.6,3689.7,15189.4,10667.5,16188.6,0.0,91664.6,
130,0.282,18987.6,24063.1,26326.5,21995.0,24782.5,27142.6,26904.2,23010.2,23935.6,28918.8,18715.4,30058.8,29852.8,19169.2,24787.4,25543.8,38722.0,27565.0,29634.1,0.0,114188.3,
131,0.287,14745.0,15014.1,16847.8,16763.1,13921.1,14981.3,20999.2,19352.6,21252.8,20514.3,12555.7,25729.4,23407.2,15737.5,18039.1,16648.8,23093.9,19510.8,22678.7,0.0,125268.8,
132,0.278,7721.1,10922.2,13019.4,8973.6,10493.8,12255.2,10822.2,8709.0,10956.4,11853.4,15593.6,16390.7,13445.4,9278.0,11498.6,17582.0,15522.2,11515.6,10176.7,0.0,105480.4,
133,0.283,20641.0,24883.7,33560.5,30740.5,25175.6,31517.2,32887.8,24149.9,36422.4,30872.5,17809.4,26546.5,30541.0,16414.0,23000.5,24313.6,26669.1,31827.6,33839.9,0.0,165708.7,
134,33.534,468324.9,87205.9,44399.9,1317564.5,21212.7,24234.1,22703.4,12492.5,21311.2,15780.1,13969.2,16398.6,16876.0,11317.5,12023.1,15533.9,14538.5,17708.3,25598.4,0.0,91092.5,
135,4.077,25115.8,31576.0,31484.1,25743.6,26739.1,30398.4,28008.1,26300.5,22787.2,29488.0,27415.9,25701.5,26769.1,29518.0,28657.8,26663.3,25990.8,27354.4,29664.6,0.0,76046.9,
136,0.549,22811.0,15429.4,25172.1,27039.0,20604.0,22039.7,24603.8,23946.2,25300.5,21695.0,14230.2,20877.5,25358.9,17023.7,21626.9,18167.0,21903.3,37546.0,24551.2,0.0,170900.7,
137,0.344,10909.6,11971.6,12681.9,15622.5,13670.4,15311.6,15532.3,16452.1,15146.9,24962.2,9952.9,14112.2,21075.2,11637.1,16534.4,15369.4,16608.9,22702.7,25547.0,0.0,150524.2,
138,0.359,10377.1,11478.8,9139.9,11777.9,8723.7,9385.2,10198.5,10006.0,7911.6,14528.8,18554.9,12934.6,11883.6,13166.4,16748.1,22700.8,13682.3,12213.9,16297.0,0.0,93813.9,
139,0.343,11042.1,11273.3,11643.7,12045.2,14792.0,14332.3,13003.1,16505.7,16632.6,12120.1,8366.3,10695.3,10986.5,12866.3,12077.3,9430.0,8178.0,11340.3,17460.9,0.0,123797.4,
140,0.329,13272.7,15519.5,19858.1,19755.5,18675.1,22113.3,23711.4,17964.9,28954.4,13005.4,18778.1,22868.8,24392.0,13164.6,17858.8,25570.0,17066.1,24197.4,13451.9,0.0,79390.3,
141,0.841,9531.5,12504.5,16110.0,14799.9,10966.8,13834.6,14398.9,13032.7,12166.2,10254.4,18987.2,12089.5,8001.5,9938.5,20049.8,35849.6,8106.2,12223.2,16422.3,0.0,85516.5,
142,0.305,13047.7,11148.4,9753.6,9370.5,11018.8,10427.3,10495.2,11185.6,12179.5,6961.2,11611.1,18847.0,9688.1,10803.9,13496.1,15407.8,10913.6,7607.6,6473.4,0.0,147631.5,
143,0.48,10223.8,12481.1,13277.2,9050.2,13477.1,14150.0,13328.0,11093.3,19073.8,10950.0,8755.3,46652.5,15813.4,9442.5,20507.5,23544.3,18704.1,12523.1,9330.2,0.0,97690.6,
144,0.358,8664.6,7201.6,8066.8,12121.5,7931.2,9481.1,10507.9,11432.2,8790.7,17368.8,8985.9,10819.4,8579.0,9449.3,12749.5,14978.1,9880.3,9836.3,28805.6,0.0,89662.6,
145,0.391,12378.3,16639.6,18771.5,25939.4,14835.7,20675.0,23401.3,14190.9,21452.9,29033.9,13087.0,12493.1,23775.5,11556.9,13122.3,14727.0,19826.6,28270.1,34683.7,0.0,157685.2,
146,0.563,19249.0,17391.9,23917.4,26038.2,21605.7,21807.7,24367.5,28625.8,28317.4,28492.8,17493.7,23545.3,25140.8,21050.5,21220.8,16919.9,17636.5,26573.8,30082.4,0.0,116523.3,
147,1.037,6744.7,7531.4,9469.6,10518.8,7720.4,7243.7,7995.3,5728.3,7157.5,8542.1,6611.7,8309.6,6278.4,9635.3,6008.9,7829.9,6759.0,7642.2,12373.8,0.0,111278.4,
148,0.323,11618.5,21002.4,24575.8,24094.8,21209.7,30250.4,26694.1,19180.0,31155.4,24210.7,15628.2,38025.3,22596.8,8267.1,21485.4,47924.7,41356.3,22811.9,22842.8,0.0,178566.5,
149,0.285,11953.3,12870.5,22520.2,30334.9,12972.9,17411.5,23401.4,14020.9,26024.3,20129.7,16892.2,94433.7,40712.5,13394.7,30915.0,66173.9,55745.2,23978.1,23108.8,0.0,136822.1,
150,0.343,21011.8,21842.6,22931.3,27198.8,26791.9,33021.8,30585.3,28932.2,35727.0,24828.6,23006.0,87933.2,31156.3,20296.0,33784.2,78435.7,32250.7,28830.3,30909.7,0.0,99069.7,
151,0.437,10272.5,10664.3,12743.0,16164.1,10175.3,11854.5,14013.9,8168.9,13547.2,15015.0,10678.0,20738.9,16925.1,7704.6,8970.7,16029.5,10714.0,20087.2,23024.2,0.0,139985.0,
152,0.333,11920.5,10492.7,9782.0,11004.0,11814.9,13340.2,12113.2,13140.1,13909.5,15625.1,16883.3,35157.9,20167.8,14917.9,18341.7,30047.9,28383.3,14111.1,13489.3,0.0,120819.3,
153,0.259,10266.1,13613.2,14128.4,13921.8,10181.5,11732.7,13120.3,13233.3,13551.3,32719.2,27492.6,51967.7,32093.3,14357.7,28522.0,67382.5,86358.0,15408.3,17746.0,0.0,98490.8,
154,0.275,6657.9,6317.8,11451.7,15274.7,6974.5,10327.9,11800.0,6708.5,10799.2,8318.3,17815.7,17405.7,8633.8,8941.5,13734.5,36179.4,15674.2,10396.3,12803.4,0.0,125905.0,
155,0.259,3863.3,8607.9,12000.4,9176.0,8915.8,13154.4,11416.3,10270.3,11953.1,17382.0,30502.2,63125.1,19558.4,5011.0,29013.3,79824.7,68947.4,8839.9,6838.7,0.0,117908.9,
156,0.318,15392.5,13391.2,15447.3,15680.3,17007.5,18013.2,16977.7,18187.8,20926.8,27366.4,17776.0,49315.5,28546.9,18984.6,21952.7,33886.2,53949.9,18420.3,17872.2,0.0,171614.4,
157,0.333,13139.5,17961.3,24797.7,36544.7,20491.9,26705.1,29889.6,24064.7,32082.5,26641.5,28946.3,75708.5,31957.0,17991.8,49127.8,77787.8,33260.0,31723.4,37372.0,0.0,118887.9,
158,0.483,12330.8,11945.0,17871.8,23615.8,13548.5,16424.8,15550.6,13445.8,16126.4,19488.5,17221.3,17155.1,16502.4,18460.9,16114.0,13582.3,14787.3,18453.1,32468.2,0.0,153843.6,
159,0.289,8535.0,9634.6,12305.7,10457.3,8483.4,8865.7,9746.5,9699.8,7386.1,13123.9,10311.0,10811.4,9768.5,9844.2,10187.4,14806.4,13483.5,8919.8,11962.6,0.0,113869.4,
160,0.311,12417.1,10844.6,10355.5,12327.5,11559.3,12736.2,12075.3,12783.0,14645.9,17958.9,14404.4,22549.8,19655.3,15278.1,15192.3,22473.1,21908.8,18017.7,17012.8,0.0,170848.4,
161,0.331,19741.8,22265.8,33386.6,36299.7,24686.7,33180.5,37453.1,22699.3,38841.4,40613.0,28173.8,39217.9,46925.2,23767.6,26278.4,33115.2,42448.3,42874.1,43816.4,0.0,141291.5,
162,0.514,14931.5,14903.7,17029.4,20517.9,18411.5,20398.3,17667.1,17564.2,17681.7,17767.6,20746.6,12866.6,14525.6,21087.3,19166.3,13014.7,11340.7,18165.6,27209.0,0.0,159565.7,
163,28.682,14594.8,56347.1,34794.3,10212.7,16627.2,18805.0,13856.7,9049.1,9681.1,6769.0,8310.2,16636.1,8860.8,12473.1,8289.1,19278.1,13210.8,9883.5,11580.0,0.0,120350.6,
164,0.388,10733.4,27096.1,23162.3,13419.4,18005.8,20773.6,17904.2,16036.2,21301.4,25353.8,16392.6,27294.7,22695.0,15567.4,23562.7,31178.5,30493.3,19171.1,28232.2,0.0,106271.0,
165,0.826,19719.5,33419.5,27659.9,31827.5,21278.8,25609.4,26069.8,23705.4,24385.5,37483.6,20021.1,39442.2,35791.9,17163.9,27785.7,31207.9,40932.4,28780.7,32650.8,0.0,112072.5,
166,0.285,15790.1,33203.1,26576.1,9942.8,19350.6,20953.1,17771.4,21024.9,24113.8,37178.5,22188.0,105062.8,49805.3,14472.8,41996.0,73461.6,94569.9,18598.8,14295.9,0.0,136115.9,
167,59.603,20299.8,45190.0,38262.9,24526.8,27795.4,30403.0,28453.9,26295.8,39493.8,45901.9,27855.6,153767.9,77607.7,17704.5,56164.6,105657.7,139932.1,34683.9,27340.8,0.0,129377.5,
168,0.276,14320.0,11999.7,9168.5,11531.4,14514.3,13892.0,13091.4,10870.8,16025.3,13152.7,6967.3,17773.3,12276.5,10994.0,8156.2,12106.3,29058.8,10652.8,10524.5,0.0,130797.1,
169,0.253,7999.1,6730.8,11169.4,11729.1,7657.2,10022.2,11894.9,9909.4,15756.6,9257.6,19932.8,66180.3,19277.4,19933.4,19305.5,29574.5,21921.0,10988.6,11723.3,0.0,79223.0,
170,0.449,12862.2,11144.4,9676.6,11621.0,11779.4,13936.9,11018.3,15752.7,15190.9,14517.8,33958.4,107061.5,29657.9,12999.4,48371.3,98865.2,32999.6,12560.7,8988.3,0.0,110039.4,
171,0.288,11388.9,14483.5,15098.0,15265.2,15239.6,15258.0,16388.7,16325.2,22982.6,19805.0,9157.2,43796.0,24509.5,9649.8,15147.2,20631.9,16157.3,21399.5,20240.3,0.0,83888.1,
172,0.262,9449.1,13646.3,17451.8,13918.5,11845.2,15610.5,18592.6,10399.6,13862.9,16961.4,7501.1,21630.9,12327.7,6439.5,10720.4,21556.9,8756.3,18270.7,29553.4,0.0,148499.9,
173,0.468,16173.2,19510.3,14683.8,11685.6,17496.8,17040.5,14363.1,15850.2,21662.0,19901.4,29040.0,62175.0,21975.1,11897.6,36301.0,97632.5,53078.4,11945.3,17329.2,0.0,139677.8,
174,0.3,15307.6,12627.5,8981.5,12265.2,16434.9,12106.9,12622.1,19960.2,20267.3,36412.4,30418.2,69980.0,35935.2,13883.3,41081.5,83196.2,72285.5,16498.7,19008.1,0.0,127423.6,
175,0.394,18016.3,25241.3,28101.9,26895.9,22934.0,26710.3,25984.4,19688.0,27577.5,17080.7,24582.6,37722.6,26674.7,21303.5,20302.6,34041.3,19123.6,25870.6,25564.6,0.0,149187.2,
176,0.308,7577.2,14155.7,15287.0,16086.4,11994.2,15057.6,16548.2,9519.0,16969.7,22157.9,8109.1,18667.1,23986.5,7532.9,7244.8,10216.8,25724.1,20485.7,20124.5,0.0,126870.3,
177,0.294,15809.8,16867.4,18283.3,18319.0,18912.1,20267.4,22252.9,15873.7,22491.9,37493.8,21297.3,44770.8,29165.8,14697.4,29111.4,57152.0,53059.0,21743.4,24997.4,0.0,139395.0,
178,0.408,5847.6,7007.8,7367.7,5447.7,8105.3,8612.8,8421.7,11153.6,15362.3,8182.3,15384.8,37903.6,13046.4,7931.4,22409.0,32785.7,13159.1,9331.7,8663.2,0.0,107042.1,
179,0.289,14201.2,14864.2,14822.5,21384.8,17449.1,21474.6,19584.9,21652.6,22085.3,18587.9,18343.6,24404.3,23014.1,19340.4,21363.1,20354.6,21321.1,19649.7,18857.3,0.0,97482.8,
180,0.265,10168.1,8455.7,12585.7,13108.1,10746.3,10552.3,12054.8,9471.9,13338.9,10691.0,9846.4,11091.8,10723.0,9758.8,8839.9,9696.1,10916.1,9698.7,12003.8,0.0,117049.5,
181,0.339,7900.3,7855.3,10271.2,11222.4,9589.8,9475.6,8993.9,10613.1,8369.0,11248.3,15409.8,11287.3,9899.3,12142.1,12592.8,16586.2,9397.7,8334.2,11935.8,0.0,136931.7,
182,0.333,10061.4,9284.1,13987.5,16066.5,11995.6,13276.4,14832.3,15860.5,15747.6,9399.8,17220.4,21188.8,13247.4,11618.1,18491.7,29797.0,13175.5,12390.7,12362.2,0.0,124713.6,
183,0.31,18291.6,27786.9,32511.5,35953.9,29888.2,36457.1,43140.4,20564.7,49051.6,38139.4,28757.1,101870.0,56752.4,16359.7,46325.6,89864.0,62707.2,49416.3,43707.9,0.0,143091.9,
184,0.331,17878.5,20398.1,21454.2,21932.4,24182.5,27221.4,27355.7,33274.8,30160.2,25659.1,83935.8,107043.4,41722.3,28604.5,98809.5,211937.4,71819.8,26287.4,21231.6,0.0,129137.5,
185,0.301,6969.6,6574.4,6073.0,9749.4,7399.8,7620.0,9399.8,15316.0,16722.7,33115.9,32804.4,137961.0,60250.9,19072.8,60568.5,103096.3,86256.0,21164.8,17577.9,0.0,165130.5,
186,0.33,21666.4,22693.3,20322.3,19337.2,23650.9,28205.8,24918.5,19701.9,34514.4,45751.5,20525.3,143235.4,80467.3,16218.9,45010.5,80696.2,113934.9,30733.7,23604.4,0.0,130342.6,
187,0.32,9827.3,11700.0,16801.4,15798.8,16900.8,20780.8,20502.5,20659.7,28541.9,16528.0,23793.7,99950.8,37505.4,14918.2,41893.2,66521.5,45599.9,19532.8,11593.8,0.0,73679.4,
188,0.413,20773.4,21845.6,24802.4,27209.4,24818.7,30179.3,27485.3,21838.4,25337.2,25669.4,27986.5,67644.1,37406.3,22122.5,33588.8,59456.3,47302.9,28246.6,26467.4,0.0,80517.2,
189,0.33,10669.0,19732.7,28943.1,30085.1,22390.8,34142.1,36654.5,17601.7,34594.6,45306.7,72981.5,121018.7,56137.5,16865.7,68923.9,186298.1,120924.8,34400.2,39296.4,0.0,125289.2,
190,0.327,6904.6,8380.8,8868.8,8586.8,9670.4,10382.4,10466.9,12053.0,18651.5,13037.0,19875.5,106437.5,39660.5,10988.0,37667.0,69810.3,70474.6,11744.7,11272.2,0.0,134289.4,
191,0.319,15087.5,18526.0,21594.1,27483.1,20961.0,26298.5,28425.0,23502.1,33191.1,25558.3,32653.8,123610.9,46589.5,17419.1,51736.0,107704.2,52254.3,38074.5,34225.6,0.0,155822.3,
192,0.268,11861.4,15165.8,13995.0,8763.9,18705.7,22889.3,18418.5,18051.8,34600.2,8608.1,22131.9,86661.4,26784.5,11519.7,37342.5,99330.9,41668.4,15058.1,9396.5,0.0,108688.1,
193,0.283,12727.4,7725.2,9282.6,11286.0,13300.5,10865.5,12503.4,17958.0,21358.8,18450.7,25572.4,101887.0,36789.1,15270.5,49213.1,86092.3,68411.6,16027.3,17178.0,0.0,123010.2,
194,0.33,8513.5,12808.7,14352.4,13385.9,13707.9,14495.5,13042.6,12515.5,14369.0,16135.8,9621.0,33595.8,17631.2,8804.8,14866.9,16624.0,22853.1,12623.0,15617.3,0.0,84171.5,
195,0.282,13811.5,14156.1,17051.3,18715.3,17748.5,21652.5,22412.7,17175.5,33373.9,33470.9,13578.7,53564.4,43539.2,10645.0,21023.1,29027.2,48126.4,29203.7,26670.8,0.0,135618.3,
196,0.36,10912.6,17127.7,17442.1,19143.3,17634.8,20581.6,21592.4,13132.4,27093.4,17664.9,12926.8,41609.0,27083.3,9628.8,11239.9,25114.2,30834.1,17985.1,14327.1,0.0,123342.2,
197,0.257,5352.2,7664.4,9119.9,9370.4,7577.9,10545.0,10436.8,8155.9,19467.2,25915.3,12289.4,109698.1,55872.1,5700.2,28158.2,47392.9,88119.8,17416.6,12243.7,0.0,61542.3,
198,0.31,13343.5,15829.1,22520.8,26333.7,17207.2,22826.4,23629.9,11748.7,27562.3,23976.5,19755.7,119740.8,52052.6,8800.9,31309.4,64690.3,85646.2,27010.2,22357.9,0.0,90193.7,
199,0.277,9854.3,13747.1,15360.7,14111.0,16570.7,20304.0,16893.3,10945.0,22092.0,22000.2,4658.0,48822.9,31440.9,5827.0,9073.0,12966.5,34997.6,19014.6,18286.4,0.0,99352.1,
200,0.339,15220.2,24814.2,35696.3,37541.1,21732.5,26119.0,32497.1,15612.9,27646.0,32402.1,22919.1,72382.2,36253.4,9942.9,36113.8,81234.5,49568.9,31314.3,34923.3,0.0,78715.5,
201,0.304,7546.3,12443.6,19847.8,18982.6,14100.2,17680.9,19330.8,19464.1,22959.2,12698.7,25263.5,84419.6,19267.1,11255.2,47867.6,76034.1,20705.8,17674.0,16162.7,0.0,82452.5,
202,0.368,8629.1,12325.3,21182.3,27480.3,15988.1,22777.0,27211.5,20208.2,43030.4,47726.4,23243.4,92711.2,64144.5,12978.7,33080.8,45177.4,91959.9,40050.8,40699.9,0.0,93101.6,
203,0.225,11526.8,12745.2,10959.2,12063.7,16067.7,18852.0,17418.5,20834.8,32408.0,13674.3,26605.1,76113.8,32407.7,15659.1,40260.8,55469.9,28412.2,21962.1,12255.9,0.0,123526.7,
204,0.29,13331.6,13338.0,12215.0,11478.8,12227.3,13339.0,14051.9,14850.8,19477.2,37798.6,18453.0,35770.7,29477.2,11243.1,24754.3,42139.8,59755.5,15154.0,18093.8,0.0,124577.0,
205,0.265,12438.5,14510.6,17707.2,16211.2,20696.5,24850.9,22450.0,18192.2,32402.8,24054.7,17804.9,90298.6,29236.7,11037.7,35526.5,80747.8,33578.2,22774.4,21904.0,0.0,97658.5,
206,0.339,15393.8,18065.7,26223.0,26352.7,19098.2,21344.7,23783.8,24439.6,30406.4,19441.5,61412.0,90427.5,21002.4,20276.1,73402.9,160104.5,32736.0,25017.2,27394.1,0.0,94312.6,
207,0.282,6795.0,7977.7,11709.2,14574.1,16544.2,10933.5,13766.1,8430.3,10480.5,11436.0,9004.8,17549.3,12771.2,7190.4,10194.0,18231.4,15618.7,12829.1,16448.5,0.0,103573.1,
208,0.229,7172.0,9834.1,15156.1,14941.2,13062.5,15673.1,16248.1,10380.5,24770.9,21403.0,9297.8,25597.8,28608.5,7356.4,15031.0,24623.7,32905.3,21033.8,17978.7,0.0,77742.6,
209,0.318,12982.1,20674.2,21097.1,22302.8,17772.3,19987.8,22501.9,12580.5,21256.8,28451.8,13427.2,33275.4,32468.5,9914.1,13088.6,15199.6,27336.0,25228.0,26575.0,0.0,104812.3,
210,0.251,12646.5,15865.8,12945.6,9261.7,15256.0,14102.6,13514.8,13124.7,15835.4,21787.1,17889.1,50372.0,31200.9,9665.4,22348.5,46650.3,28437.3,16906.3,18511.6,0.0,118797.9,
211,0.316,18874.9,26672.0,27089.0,22150.9,23460.3,28213.6,26184.5,16812.0,30913.2,20028.9,13091.2,32302.0,29123.6,16241.7,12064.1,12643.1,32574.7,25931.2,20602.6,0.0,111383.9,
212,0.313,7426.1,5680.1,6229.4,7656.0,6453.0,6059.0,6009.5,7500.7,6661.4,11275.5,7956.7,16619.3,7438.9,6772.7,12007.2,15229.9,14746.7,4033.4,8316.2,0.0,128315.5,
213,0.283,14262.9,14006.3,13053.5,15281.0,13063.8,15825.0,15507.9,10728.0,17220.9,18873.7,6045.7,22450.0,21277.0,7976.3,10464.8,7931.8,22389.4,19588.6,17581.6,0.0,116548.9,
214,0.346,11686.3,10695.4,12372.1,13173.5,10453.5,12665.3,13730.3,16289.4,14946.5,12021.9,13268.1,18137.8,17174.5,13073.2,12000.5,13034.7,15997.8,16143.3,14623.5,0.0,156840.9,
215,0.287,13861.6,13615.8,11654.3,13909.0,13760.3,13737.4,13670.0,12191.2,14952.7,9653.3,16290.8,50201.5,13346.5,12766.1,19747.2,32561.0,17421.8,9174.5,8542.4,0.0,87554.1,
216,0.306,28939.5,29448.2,23840.2,27821.6,31755.4,28333.4,25743.5,27128.0,28140.5,21972.2,21240.3,68089.9,33286.7,23043.8,31396.6,71797.6,34733.0,27140.5,27215.0,0.0,122074.5,
217,0.265,7574.5,11338.9,21993.3,22916.7,9681.7,14029.1,17500.5,9517.8,10687.1,23908.8,24811.1,38067.4,15060.0,10740.7,26192.1,47804.5,16221.6,18426.9,21187.8,0.0,135764.4,
218,0.282,15913.4,20395.6,21120.0,15780.1,16271.2,16733.4,17997.4,13815.6,12507.1,12858.8,12822.1,13465.8,11971.1,15601.1,12045.3,10491.9,12179.2,13783.4,14871.5,0.0,154044.7,
219,0.235,9572.9,8997.8,9771.4,10459.1,7538.7,10203.6,10767.5,10342.3,9771.8,8744.3,13382.2,11263.4,9212.3,12729.3,12460.1,13486.8,10401.7,9156.2,8821.9,0.0,137850.4,
220,0.345,18026.2,25846.0,29128.0,24185.8,28395.9,34211.6,32044.2,26044.8,41997.7,31922.4,31037.2,105613.4,55157.5,17574.6,45210.8,84099.6,71448.2,34703.2,26145.6,0.0,141846.3,
221,0.313,9378.6,14510.3,16213.0,10313.3,16001.7,22080.4,18959.0,14871.9,25012.4,24824.0,9973.0,68416.4,39807.8,7610.8,20063.3,29285.6,55425.7,21423.1,15732.9,0.0,142839.8,
222,0.301,3214.4,4604.3,8002.2,8469.8,3977.2,5583.9,5453.2,5490.2,4833.5,6456.7,9380.6,15936.8,7248.5,6202.6,14214.2,29028.7,8922.2,6435.0,11732.1,0.0,110617.0,
223,0.277,7432.1,9446.0,13226.6,16811.0,11455.8,14306.4,17257.3,12306.8,12271.0,21473.0,14400.9,24726.1,23507.5,13762.2,15818.0,18533.7,31945.6,18742.9,19578.9,0.0,127403.7,
224,0.3,19190.7,23634.2,25210.6,23955.3,19713.5,22207.9,22760.6,17014.7,22960.4,19885.0,15570.4,22040.4,18441.7,15241.5,21278.5,33197.5,16384.1,19369.1,20335.4,0.0,120255.8,
225,0.306,8533.2,12265.0,13341.7,17235.4,10112.7,11452.7,13693.7,12568.8,13871.1,23441.3,15866.4,58002.4,31481.9,9962.3,25269.8,58192.6,33858.6,21531.8,22703.8,0.0,122590.1,
226,0.27,8979.9,12740.1,14928.4,16152.7,10300.8,13905.6,14063.9,13683.7,12475.8,16172.6,15077.5,48862.6,22376.0,10317.0,18803.1,39659.1,27247.9,15715.5,14411.5,0.0,118784.8,
227,0.317,13848.2,13082.0,11220.0,9146.6,15680.6,16649.5,13575.0,14286.1,16627.7,11051.9,10566.7,8574.5,10087.6,14510.1,10924.8,7390.0,9011.7,11037.6,11249.5,0.0,133030.9,
228,0.471,17895.8,21659.7,18563.0,18321.8,24789.6,24984.6,22299.6,24105.6,31872.2,25054.5,21371.5,24274.1,22954.5,20388.1,24952.7,24968.9,23477.6,25039.3,21344.3,0.0,140399.4,
229,0.344,18535.8,21274.8,24352.8,21723.2,20634.9,23376.6,22392.4,19190.4,25702.8,17062.0,23472.6,20406.7,19783.9,18735.4,21579.0,21135.4,17427.9,21541.2,19307.1,0.0,172759.3,
230,0.296,6010.1,14179.1,19084.0,20265.0,15592.3,20188.4,20481.1,9678.9,21282.9,29292.0,6580.5,14825.4,22170.1,7450.5,6089.5,8963.3,17402.2,23843.5,31669.7,0.0,129028.6,
231,0.36,11734.0,17475.0,18896.7,20076.0,16759.5,24367.4,23989.0,12111.1,27207.4,27045.2,14244.5,117235.6,53073.5,8979.5,21507.4,72172.3,58849.0,26615.5,20566.3,0.0,101867.4,
232,0.362,12514.7,16038.4,14295.9,14079.7,16432.4,20718.6,19495.9,15746.6,23133.9,22226.3,22070.0,88146.8,43778.2,7986.0,32140.0,62338.3,36695.4,26018.8,22875.4,0.0,101531.6,
233,0.277,7635.3,10939.0,13276.2,10094.3,9316.0,10907.1,10354.9,8615.2,11910.5,10975.5,8986.5,13178.5,12260.9,5995.5,8787.6,12515.2,14455.2,10425.1,12209.7,0.0,159973.1,
234,0.42,11718.4,13779.4,17153.3,18634.1,12624.4,15233.4,16494.4,14187.7,18037.1,20194.3,19064.6,19759.0,20920.9,16074.2,16443.2,19281.2,19348.3,20040.3,24724.7,0.0,140746.1,
235,0.448,13642.7,19425.0,25727.6,20751.7,20144.7,21548.8,22684.1,15924.9,20605.0,23946.9,10268.2,22026.8,24238.3,12284.6,14754.6,14955.4,22680.1,22827.5,23789.7,0.0,153987.2,
236,410.14,5017227.4,339759.4,318341.5,664039.1,25148.6,20657.5,16864.1,21130.7,42881.6,18401.3,22190.7,26149.3,15306.1,13307.6,20906.0,34841.5,14446.7,15734.4,17208.0,0.0,187332.8,
237,19.149,28486.6,19832.5,27718.5,15859.0,14564.0,15758.7,13281.7,14717.3,13684.0,19509.6,13970.7,49889.2,19805.6,12104.2,19050.7,46771.4,38357.6,14951.7,13699.7,0.0,156733.7,
238,12.345,45023.3,108513.0,104287.4,22938.8,25527.2,26535.2,23074.9,15210.4,23608.8,24376.8,6922.5,22731.1,22864.0,11584.0,13054.1,15292.3,30332.7,22402.1,19090.8,0.0,126520.9,
239,0.396,10789.8,16244.5,26650.4,17892.3,12246.8,13228.0,16048.8,10828.4,11247.8,13293.0,19399.2,25216.8,14350.6,20962.7,15635.6,39243.2,23988.3,11626.2,14070.4,0.0,144912.9,
240,0.374,11128.7,18657.1,27138.1,19937.1,15420.6,19369.6,19140.7,10299.3,22061.6,27559.6,18323.8,48740.5,27784.0,9695.4,23592.8,82696.5,45856.0,20298.7,18655.5,0.0,149721.1,
241,0.327,14172.3,16758.9,19287.7,13365.6,18163.5,19471.9,18466.3,20154.4,29107.5,17718.3,11786.3,48789.7,28835.6,16999.8,24664.8,18011.3,19676.5,23772.9,18435.4,0.0,124510.8,
242,0.486,14854.2,16064.0,17674.8,17366.0,18782.3,25390.6,24163.4,12610.0,25513.5,15312.5,10343.0,35868.3,21875.9,10898.8,13165.3,29601.2,22549.5,20545.7,17359.4,0.0,122205.6,
243,0.311,8564.6,14204.7,24102.6,28065.2,19035.5,27713.4,30138.2,23566.7,47870.5,43261.7,43527.5,188814.9,84021.7,9948.5,78873.4,199289.1,212917.9,34537.4,24082.6,0.0,137381.8,
244,0.482,12565.6,20369.3,27523.2,30885.8,21963.8,31557.9,32506.0,23978.7,39230.6,44118.7,31063.7,178824.1,77584.9,13818.8,68353.8,130768.4,152666.4,36941.2,28958.7,0.0,122240.8,
245,0.48,8550.5,8222.5,10819.3,9844.9,9087.8,10003.6,10830.1,20378.2,24084.4,38860.1,29731.6,136238.9,60612.3,15650.7,53343.9,101364.5,101994.6,19949.5,20189.8,0.0,126296.7,
246,0.295,13112.4,17787.4,23123.6,20559.2,15760.7,19124.7,19998.2,10867.1,18361.2,21662.5,22180.5,30349.5,18242.0,12723.4,21549.6,48244.0,35509.8,16377.5,18603.8,0.0,128902.2,
247,0.272,22593.7,22348.8,23113.7,29343.8,26049.8,28401.2,28866.6,27912.9,33000.6,39348.2,57191.5,105770.5,53204.3,21553.7,60965.2,150673.4,62634.2,35880.9,36621.5,0.0,124203.5,
248,0.258,8231.1,13128.1,15883.1,16496.2,10855.3,12705.7,13598.7,10677.2,9731.2,10441.1,9977.1,27130.9,12093.3,10454.5,11712.1,17921.3,15371.7,13680.2,16091.8,0.0,131226.4,
249,0.351,14308.1,14553.4,15458.4,14317.4,17260.8,19057.1,18258.1,20100.0,21240.1,21858.7,26540.3,46754.5,23405.3,17233.1,29732.4,55725.4,36497.4,20723.9,20490.4,0.0,137707.1,
250,0.335,14962.5,19170.2,31714.1,17728.6,20108.5,24054.7,24719.6,12445.3,18004.2,28338.6,18760.7,119569.7,38558.3,11018.8,45626.3,115757.2,101931.3,17881.2,16972.2,0.0,107793.2,
251,0.309,12453.8,12748.9,17527.2,17258.2,19888.8,25377.9,23799.6,19965.5,39153.9,26560.7,29829.2,103685.3,48629.4,13667.4,41509.3,83591.7,63968.9,31980.1,21947.0,0.0,124722.4,
252,0.289,7756.9,10712.4,16706.3,15455.4,8121.1,8813.8,10438.9,9627.3,11292.8,29653.9,15232.9,92974.0,40072.0,8860.7,31422.5,55363.0,73997.1,15224.5,17317.3,0.0,117148.9,
253,0.312,25370.1,34586.2,41851.3,30590.7,35430.8,43326.3,40877.2,33652.8,43415.8,25512.4,55868.8,293296.0,86561.4,19600.7,109530.2,256346.8,149116.7,34601.0,26409.8,0.0,113826.9,
254,0.287,7239.0,13941.8,13169.8,12827.0,10781.3,14988.9,15122.1,9379.7,22804.6,12742.3,18055.0,151809.7,44453.5,4818.0,37314.8,87044.8,74914.6,15272.0,11513.3,0.0,113856.2,
255,0.396,25662.0,23116.2,25387.9,30425.4,26064.9,25302.4,29403.1,30780.7,30688.2,41814.6,43813.4,62784.0,40786.8,26447.2,45725.7,100938.2,83109.2,33073.7,33679.5,0.0,160837.8,
256,0.268,14647.0,19944.1,22567.7,28053.8,20425.9,26151.0,28627.7,16236.4,32924.8,20176.5,10339.5,51371.4,20301.0,8411.5,20095.5,41562.3,17804.4,27285.3,29709.4,0.0,127539.4,
257,0.326,17212.3,18907.5,20972.2,21072.0,21361.9,23576.3,23411.5,22222.5,31907.9,23735.5,47773.4,215803.2,62983.0,12965.7,89035.6,208774.7,126605.4,24705.0,16880.8,0.0,136564.8,
258,0.343,6007.7,10161.8,16029.3,16103.5,12320.6,14784.2,16297.6,10917.6,21478.4,28166.3,14644.4,116903.4,48908.0,8882.3,29341.6,56210.8,115132.2,18361.1,12936.9,0.0,109047.1,
259,0.566,13567.0,15078.3,14663.5,13577.1,12762.3,12757.8,13656.5,14651.6,17946.9,10941.2,22273.7,41840.5,20177.5,11969.6,25924.0,51122.1,46497.3,13027.2,13073.1,0.0,139182.6,
260,0.338,28964.2,22391.1,25211.1,24301.0,19135.8,26823.7,29487.4,13215.2,29621.5,22769.0,11755.8,63533.3,31445.8,8675.9,20654.6,75698.7,37999.0,32128.5,24410.7,0.0,125209.7,
261,0.351,18450.4,21164.7,18648.7,14258.4,23800.6,24518.7,23105.5,20941.6,22130.1,16469.7,17845.9,45127.9,21321.6,17752.1,24917.4,43357.5,16230.0,19956.4,15810.8,0.0,161835.7,
262,0.308,13672.7,17056.0,12074.3,10989.0,15184.2,16948.0,14208.9,6941.4,12877.9,14315.5,24273.1,41468.1,16107.7,15738.8,18377.2,73896.6,28245.1,9234.2,12824.3,0.0,119745.8,
263,0.301,12723.1,13646.2,16024.6,15533.2,15225.7,16493.6,14931.9,13603.6,17962.5,17435.5,6719.8,15599.7,10729.3,7527.8,12476.8,12185.4,6425.4,14917.6,28741.4,0.0,118290.5,
264,0.405,9572.0,20362.8,23618.2,16652.4,10290.1,15268.8,16436.6,7339.9,8545.6,18827.9,10020.5,9187.2,10811.1,8072.2,5646.2,9455.0,16273.8,13148.1,16148.8,0.0,116398.7,
265,0.936,8913.7,12205.6,13459.6,9039.3,9931.0,10906.2,11596.9,9419.3,13500.6,5919.8,7700.1,22934.9,8605.6,6580.7,12428.9,20244.2,8940.5,10729.7,11208.6,0.0,134245.5,
266,0.347,13494.9,18595.7,22281.0,21788.3,25950.0,25499.9,26248.6,27902.4,35567.4,23494.0,24061.5,110624.2,43757.3,16177.8,50935.2,108391.3,61028.5,33305.2,16005.5,0.0,124430.2,
267,0.354,18594.1,25512.2,23474.0,17187.8,24532.9,28001.8,29433.3,25661.9,25794.2,19122.3,21062.8,33272.7,25380.3,21003.9,24654.9,21074.6,17416.1,23668.4,22140.2,0.0,157153.3,
268,0.406,16690.6,19922.2,22317.0,21410.5,22307.9,22902.7,25947.6,17835.8,24413.8,18927.9,15626.5,14901.5,20392.3,12267.2,20721.6,12269.9,14833.6,24248.0,21166.2,0.0,103761.4,
269,0.351,8035.7,14515.8,21436.3,24944.8,13209.0,16335.3,18672.7,12406.7,14519.6,23047.6,10808.4,14385.5,17460.5,6809.6,10608.3,14800.8,19164.9,20805.3,23672.2,0.0,147375.9,
270,0.301,7633.1,13146.6,20325.5,20278.4,15065.0,19770.7,21485.3,13176.3,23544.1,15582.2,7249.5,23952.5,21643.1,5966.9,15600.9,16557.7,16850.9,19580.0,19882.6,0.0,130933.0,
271,0.274,10734.4,11881.3,16460.4,23124.1,12841.3,16611.1,18822.5,11111.1,18380.3,35747.7,6756.7,12745.1,23958.1,9564.7,7570.9,9789.9,25678.7,22936.8,35511.2,0.0,82605.3,
272,0.358,6801.1,6586.9,7539.3,8483.8,7554.6,8076.5,8358.6,10556.0,11421.1,13964.9,11380.9,21164.1,15603.9,6873.4,14830.8,13850.0,15624.7,9329.8,16890.7,0.0,114166.5,
273,0.296,6579.7,7180.3,6645.6,9009.9,9146.3,9708.7,8012.1,8943.1,12212.6,7992.1,6050.2,12984.8,8602.5,5929.7,9624.3,11731.9,7210.1,8808.2,10438.7,0.0,100106.9,
274,0.53,16728.7,22195.6,26909.3,25467.8,21533.6,28231.8,29048.4,26092.7,28649.7,32201.6,19451.0,30616.5,34755.8,19597.5,23816.0,20388.1,28151.4,31672.9,32685.6,0.0,131521.9,
275,0.344,13314.4,17657.1,21739.5,25425.8,18627.0,23371.6,25312.1,14737.0,22130.2,19782.2,10898.4,16804.6,23266.3,12349.7,14049.2,16006.4,17858.3,23985.8,25244.6,0.0,114835.7,
276,17.391,17392.4,30697.0,29549.2,25139.4,23798.4,27742.5,26393.4,20600.5,27039.5,34946.1,18254.0,26452.8,30708.1,14796.9,21365.5,36170.4,38232.6,28240.4,33908.1,0.0,140697.5,
277,0.32,18256.8,21606.1,25247.0,20838.3,20065.3,20275.7,20851.2,22756.2,28814.3,29718.8,46485.0,125927.5,42189.2,25443.3,63271.4,168216.2,103605.8,20938.5,19074.3,0.0,125178.7,
278,0.655,14483.9,26131.9,29541.8,25906.8,15980.7,20310.2,23070.4,18249.4,25873.4,41489.8,30615.1,71341.2,42079.2,13375.8,43517.7,72106.7,73126.6,25313.4,23402.3,0.0,96172.3,
279,0.339,8838.0,20704.4,19482.6,20247.5,12228.3,15924.3,18493.8,20384.8,21860.6,15969.8,32686.6,156721.0,32991.7,11738.3,79784.7,139999.8,50480.0,17408.9,17276.5,0.0,100276.1,
280,0.317,28612.6,43331.6,38783.3,38214.9,38446.2,42850.3,47053.0,37634.7,51280.9,56079.6,60305.5,233275.5,107388.9,34306.0,105937.1,198605.4,214478.8,50880.6,39259.6,0.0,109312.8,
281,0.278,7767.4,11179.8,15718.6,12523.4,10224.3,13021.3,13346.8,17866.6,20115.3,19885.5,39851.6,182599.7,53823.3,9986.9,74872.6,193766.6,206657.9,11869.0,8640.7,0.0,72874.9,
282,0.348,22735.8,29426.7,33197.9,36828.5,24406.8,29965.5,34029.8,22195.6,35372.4,30195.2,46651.6,170584.5,70591.9,13297.5,74888.6,190821.7,209838.3,28790.5,23698.0,0.0,121714.5,
283,0.304,23892.3,40243.1,37892.0,27155.8,29373.5,33881.4,33278.9,13719.8,22810.2,24194.0,20203.3,157697.5,46694.3,10631.6,42833.1,134651.7,195148.1,14675.2,17152.0,0.0,159085.0,afterglow 
284,1.051,25994.8,33103.3,34618.6,25050.8,28373.7,33828.1,33413.5,24421.0,31558.3,65539.0,27510.6,184584.4,89456.4,17403.9,61771.3,132315.1,237675.5,27804.8,21183.3,0.0,83212.2,
285,0.256,12571.1,26180.2,24999.7,16640.1,16197.9,21549.5,20895.2,11098.4,20558.5,44127.4,35984.6,154502.5,73092.2,6256.0,62541.7,168178.1,175597.4,17192.0,13508.5,0.0,120483.7,
286,0.245,19329.3,31033.3,29159.4,28451.0,23279.5,31103.0,32762.4,22287.8,33861.4,46269.0,45712.7,209415.6,81401.1,13837.4,80030.8,184538.5,181061.1,31742.2,26824.9,0.0,138884.9,
287,0.299,12778.4,18517.0,22894.0,24962.7,13663.7,17864.0,18327.9,15689.1,20964.7,50244.6,31362.4,128023.1,64426.2,16966.0,56169.4,120364.0,145968.8,25759.7,30795.7,0.0,86813.7,
288,0.561,44979.7,47418.3,50993.3,46134.6,45524.1,44268.0,43874.8,42417.7,41108.1,60009.9,52222.7,111193.4,61413.2,39300.0,64198.4,136370.0,149721.8,43388.9,50197.7,0.0,108224.9,
289,0.224,8849.9,16531.3,19460.3,22352.4,12815.4,18099.5,19086.3,15868.9,20944.1,41997.3,34914.0,135997.2,52381.3,10350.7,66328.8,156573.4,157645.7,21438.2,21036.9,0.0,124438.1,
290,0.214,8792.4,14446.4,12339.0,13001.7,11220.3,12577.6,11529.0,11438.3,14009.7,28752.4,41933.6,151463.0,47056.0,9467.4,70451.8,159684.1,128766.9,11785.1,13103.9,0.0,101779.2,
291,0.28,12374.2,24306.8,30711.0,30998.0,23155.5,27239.6,31339.4,13121.8,26930.3,37474.1,25710.8,167488.9,69135.2,9650.0,46909.0,113799.3,199381.2,26992.7,24240.6,0.0,119563.9,
292,0.226,13086.3,13786.2,17338.5,17544.0,15900.7,19734.8,21457.3,12553.4,23834.2,37583.7,24546.3,154137.2,78364.1,7946.1,50449.7,124155.1,149784.3,24822.4,26057.9,0.0,114524.3,
293,0.492,20774.8,21135.7,26169.4,33883.2,21697.6,26738.4,31589.6,24876.1,29162.5,16773.9,24292.2,79743.1,19946.3,21464.9,38819.0,96317.7,45549.6,25027.3,27029.9,0.0,97725.1,
294,0.595,17066.5,18942.7,33010.2,35702.0,25400.6,34203.7,33292.5,24437.1,28045.4,28653.4,32551.9,94638.8,41426.1,19204.2,41053.3,80019.7,52966.7,31188.0,29343.4,0.0,138353.7,
295,0.247,14590.2,20972.0,23926.5,25200.0,20171.3,22167.7,24990.4,18938.2,28654.6,41185.6,31752.8,106102.0,49740.8,12648.3,44217.3,104125.8,81063.7,31829.3,35827.4,0.0,98206.7,
296,0.257,13714.9,18431.7,20187.6,19695.0,19424.2,23760.9,22461.4,11429.2,23357.7,24712.5,40130.9,113024.5,37249.4,10749.8,48957.2,132566.2,101532.3,16890.5,14973.3,0.0,103995.6,
297,0.328,9344.7,15570.9,16893.3,27012.8,14196.2,17308.1,17206.8,20266.9,20614.2,37269.5,23881.4,84164.7,32381.4,9548.8,55573.3,109390.5,49366.0,25326.6,42071.3,0.0,98036.4,
298,0.21,19073.6,24889.5,20675.3,15162.2,18912.0,19168.3,18572.2,10621.4,18242.3,13246.2,21796.4,108625.8,23015.9,6073.3,42473.9,111762.6,56406.4,14462.0,19544.5,0.0,129782.0,
299,0.224,20345.5,21132.1,22327.8,19775.8,28890.3,30700.6,29592.7,41556.9,57026.7,52293.1,47686.1,213521.3,103841.4,22571.3,98682.3,164754.0,184048.4,39498.4,26559.4,0.0,131083.7,
300,0.246,14275.5,19419.1,20829.9,23199.2,16402.6,17974.0,20109.8,19368.6,19176.1,28817.2,29959.7,154760.9,51700.4,13437.3,77192.7,146146.3,104020.3,20570.9,34331.0,0.0,143371.7,
301,0.374,14519.5,20626.3,26064.2,24885.3,16752.5,21846.8,23463.8,8577.6,14113.6,58509.9,39562.2,145745.6,85683.8,11442.1,67793.6,171691.2,170164.2,25453.4,34813.6,0.0,176996.9,
302,0.228,16865.2,20142.6,24449.0,28233.8,23718.6,29654.3,29788.4,24645.6,34736.3,27728.9,32930.7,76072.9,35151.5,21032.6,44229.0,98384.7,57963.7,27723.8,31358.5,0.0,143097.7,
303,0.246,11758.7,14767.1,15293.0,14889.7,16908.8,19856.5,20410.2,25084.6,34586.5,16844.7,32791.6,118715.2,48841.5,13872.8,66675.9,123211.7,65236.0,22429.6,14573.9,0.0,76754.6,
304,0.207,19440.3,18906.5,19908.2,24179.6,27551.6,30332.4,28567.8,26476.1,43948.1,22804.0,17046.4,142241.3,70268.8,14485.7,53064.4,100244.1,134582.1,27446.8,17527.7,0.0,96501.6,
305,0.31,39223.1,45675.4,44419.3,45073.2,54571.0,61466.0,58485.4,59201.2,71602.9,66328.4,68410.9,151511.2,89439.8,39357.1,107248.5,200146.0,170076.5,58744.7,47100.1,0.0,105179.1,
306,0.386,42780.7,50314.1,63058.8,57427.8,55593.0,66395.7,64988.9,42593.9,54463.2,53066.9,52068.3,126602.5,63094.6,40447.0,75271.0,122865.4,151041.1,45210.4,42967.4,0.0,145916.2,
307,0.272,11584.4,17258.0,14524.6,12516.5,13375.5,14913.7,12785.7,17007.3,14877.0,15497.2,42113.5,182987.7,43767.1,9153.6,79077.7,162028.6,118033.9,8089.4,11575.1,0.0,104392.1,
308,0.212,10432.8,11224.4,19536.6,17990.9,15270.3,20388.3,21097.3,25907.4,33573.3,33848.1,59088.7,243037.6,77755.5,19052.8,108420.6,208063.7,113674.4,27500.0,20759.6,0.0,144151.8,
309,0.271,16060.7,20561.1,25901.1,28799.0,25994.5,34413.4,34480.6,24431.7,33118.2,27525.3,33516.2,152667.6,49167.7,13931.0,73916.1,131449.1,80208.0,32537.0,32524.7,0.0,146688.4,
310,0.244,14129.6,18260.3,20295.0,24045.7,17677.5,20610.4,24406.0,21167.2,28381.7,42517.0,28879.7,120087.5,52744.2,15279.3,54903.0,81489.7,74270.5,28767.1,35019.4,0.0,147315.2,
311,0.236,25347.9,25096.7,25617.2,24194.4,25311.1,25508.3,25155.8,17622.0,24071.9,26652.1,14236.4,119346.4,43304.7,16897.1,47479.2,81190.4,53695.9,24221.3,23933.4,0.0,94013.5,
312,0.301,14551.4,18237.4,17834.1,16978.2,19711.7,21430.0,22571.7,28094.0,35703.6,62957.4,30938.4,156730.4,93574.6,18373.3,64245.8,78459.9,140551.8,29281.9,29942.2,0.0,87835.8,
313,0.282,11082.5,8288.2,13630.9,16400.7,7354.6,8603.4,12642.7,13109.3,13889.6,20737.8,32987.5,129831.3,46292.4,11674.8,49587.9,98889.1,88192.8,14668.5,14395.1,0.0,149046.5,
314,0.324,15599.7,15562.8,15774.4,16063.3,17216.0,19229.1,19160.8,19126.4,22465.9,31164.1,20170.2,81046.4,52552.7,15515.6,32972.9,48054.1,101337.3,21018.8,19246.6,0.0,119830.6,
315,0.337,20177.0,16268.3,13013.1,10176.3,15129.3,12270.2,11030.5,16938.3,15168.6,36681.6,39245.2,141860.0,57369.1,18274.8,57077.9,116617.8,197149.6,9919.4,11609.6,0.0,88520.3,
316,0.191,13141.8,17127.4,19382.1,17660.4,19226.8,23883.3,20573.8,15431.1,22605.1,23225.7,27778.8,155904.5,41184.4,10246.0,56784.1,144471.3,96421.8,10460.0,10491.6,0.0,110925.1,
317,0.334,9309.6,15563.4,19013.9,19765.6,14823.4,19351.7,19328.4,13205.8,18876.0,37419.2,26298.2,128261.1,49718.4,9011.1,52298.3,103212.4,119950.9,16278.2,18729.7,0.0,119272.6,
318,0.263,10049.6,12731.1,15681.7,17725.0,14236.8,18882.1,16804.0,17536.3,16436.5,76383.3,50506.5,160381.2,95305.2,14100.5,71430.5,131297.1,225968.8,23726.7,30633.0,0.0,112262.1,
319,0.258,21459.7,18576.2,21706.1,23874.8,21861.1,21184.4,22632.2,42719.7,43225.9,47390.1,65696.5,279870.4,115215.2,33707.4,121844.3,199524.6,163167.6,32665.9,32171.1,0.0,124983.0,
320,0.218,16017.0,23400.2,32701.7,30532.2,27209.9,37036.3,34924.5,18050.0,28606.3,37079.2,45669.1,198390.1,59533.6,15117.6,74844.9,225374.9,204448.8,23223.0,25261.1,0.0,120695.6,
321,0.247,10460.0,20342.5,25294.1,25023.4,17361.8,22992.6,24051.1,11958.9,19005.8,39080.1,21896.7,169782.6,62292.4,9975.1,57207.6,105331.2,162479.0,19969.0,31786.3,0.0,152552.4,
322,0.252,15696.0,21059.7,19688.8,17830.0,20837.3,23474.0,19311.9,9378.5,21270.1,29178.2,15430.0,82046.3,27044.4,6516.9,23443.8,79718.4,139679.0,15046.5,19129.3,0.0,145336.5,
323,0.295,26248.8,27763.6,27521.6,17552.5,20539.4,21714.4,21681.2,14826.9,12111.3,16102.9,19042.0,80539.5,12114.9,14934.9,32153.1,86071.4,75844.7,14232.7,19800.2,0.0,81196.5,
324,0.289,11744.1,13484.6,14875.1,19578.6,13009.4,13919.7,16945.3,20245.7,16375.8,61791.0,43407.1,120979.4,85571.6,15580.2,56675.3,128346.9,160295.5,24633.2,22613.7,0.0,166972.1,
325,0.62,26945.7,37363.6,38032.8,30737.1,33301.5,38071.0,33296.1,19540.1,28979.0,30078.7,37051.2,207651.4,67073.3,14709.1,66260.4,176299.1,192436.4,27383.2,26098.9,0.0,89686.0,
326,3.563,16405.2,23176.1,24525.8,18146.6,19456.7,23194.9,22958.3,14993.0,22058.0,68309.4,41362.4,269427.2,90076.5,12252.6,90230.4,253390.5,322444.6,14648.0,12976.1,0.0,111188.6,
327,1.221,9502.3,17338.6,13531.7,19280.8,10681.9,12542.9,13545.8,8709.8,12541.8,25146.6,10585.5,18710.4,17945.5,10892.3,10518.6,18494.6,39840.4,13372.9,24304.9,0.0,72390.4,
328,0.264,11570.0,13223.4,13371.0,9762.4,15710.7,16948.7,16764.0,13209.0,26633.6,12792.2,7853.9,15554.5,14954.7,6657.9,9406.1,9354.1,12278.2,14032.2,16184.8,0.0,131475.5,
329,0.313,17885.8,23131.3,24694.2,25080.1,26067.0,28595.8,26058.2,22891.6,30369.2,28515.9,24678.1,26739.7,22566.1,17610.0,28630.6,47399.9,37298.2,25749.8,28182.9,0.0,57738.8,
330,0.239,15856.8,21857.5,20780.0,13409.8,22645.6,23715.8,21404.3,17601.3,30215.2,27516.0,44371.5,100109.0,31324.6,15848.3,52509.0,172414.9,117784.3,16658.5,13226.4,0.0,101091.3,
331,0.241,10509.7,9284.7,10052.5,14380.9,10050.5,11374.5,11354.7,10571.3,17556.7,17803.6,13668.3,34807.6,15804.8,7272.0,19087.9,47477.4,13633.4,14352.1,24589.9,0.0,86556.2,
332,0.215,11663.1,11332.4,16901.5,19482.5,13752.3,14385.3,15721.0,15075.1,15897.8,23314.5,14357.1,16163.3,17702.4,14215.5,14143.6,19467.0,21372.0,18483.3,21233.5,0.0,141126.2,
333,0.272,19696.5,19437.3,20641.2,19304.5,19922.7,22230.8,19513.6,19663.8,21031.5,43938.6,26657.9,85837.5,42424.4,17792.9,37050.0,107149.4,140764.4,17473.0,17561.0,0.0,109201.6,
334,0.321,13365.4,18203.8,19608.1,16697.2,18676.8,23651.2,25088.2,25395.3,34472.7,14216.9,45796.1,122365.1,35738.8,13790.3,82015.6,160652.3,55675.7,22658.1,12728.2,0.0,69489.2,
335,0.293,7188.0,9214.0,12748.0,11467.1,9756.5,14327.4,14047.3,11841.5,16588.8,29356.5,34782.1,128948.4,43114.4,5482.1,61661.8,139918.1,135806.3,11922.2,10143.6,0.0,119071.4,
336,1.543,11175.0,17423.0,20641.6,23139.3,18904.2,24108.0,25419.6,23080.9,39074.8,71744.4,33037.1,153544.1,88392.6,13367.7,53731.2,113620.8,209215.5,36311.6,32792.5,0.0,93776.6,
337,2.781,11447.1,18852.0,27161.7,27942.3,19826.3,29746.9,31033.3,14370.4,31674.9,23068.1,10852.1,62254.1,31946.1,9668.1,18658.4,50974.9,62672.1,31432.6,26177.9,0.0,65933.9,
338,0.566,27427.8,37592.2,47162.6,34636.2,36080.6,38797.7,42143.1,37898.5,36752.2,57944.3,74777.5,237516.0,89934.1,36532.5,116563.7,256417.4,205760.9,35715.9,40770.5,0.0,84621.5,
339,0.232,13207.2,12834.4,11998.2,11992.6,18057.5,18923.7,17826.2,33221.2,45560.7,70765.1,40503.7,339661.9,117802.6,19557.4,104290.0,172464.3,272861.7,29138.7,22758.4,0.0,97431.7,
340,0.291,11333.9,20279.8,18611.3,12755.3,18401.8,23285.4,19541.1,13048.6,19487.9,44278.9,31219.8,214988.0,85146.5,8056.0,75563.2,199039.0,281929.3,13604.1,13927.7,0.0,82073.3,
341,0.215,11097.3,17523.7,22829.0,21198.8,17456.1,23056.3,23661.3,12938.4,20567.1,42686.6,45111.2,180557.0,61972.0,13522.6,73497.2,158002.9,160539.6,18603.3,20794.3,0.0,71080.3,
342,0.262,23584.9,34401.6,45494.4,39677.2,36522.4,41215.1,43403.7,27604.3,31528.3,16985.0,28599.6,187285.0,49685.1,19034.2,66942.8,111801.1,125610.8,26357.1,28448.0,0.0,110021.7,
343,0.398,18344.5,22387.6,23659.4,21056.1,22399.9,25144.5,25231.0,20737.3,34818.3,47761.3,23446.2,193817.8,84746.9,12532.7,60231.8,118889.7,192123.7,26213.4,23428.3,0.0,99848.2,
344,0.276,27179.2,33387.8,35741.7,31416.5,40417.1,44742.4,41418.1,29896.3,39978.9,14498.4,27772.0,67932.0,25056.5,23823.7,42473.9,94734.9,45201.9,31050.8,20205.4,0.0,70182.6,
345,0.419,14388.6,21021.7,26462.9,24227.9,20619.6,27706.8,27602.8,15695.4,19819.5,25973.0,68383.8,154212.8,38890.0,14505.8,86001.8,236815.2,180400.0,17233.5,20706.9,0.0,72922.8,
346,0.22,7573.2,12080.9,17597.5,19565.4,8823.5,12995.2,15043.0,8004.5,8202.9,45762.5,46161.9,212302.8,65633.0,4756.2,84968.7,222619.4,188998.2,12545.2,21256.0,0.0,65752.3,
347,0.419,21693.7,28361.3,22343.7,19838.2,24116.8,29236.2,24668.1,20539.5,32412.8,78548.8,32649.8,172071.6,100711.4,10693.1,61670.7,144480.3,242476.2,31450.4,33041.9,0.0,73956.8,
348,0.786,18234.1,26420.0,24742.3,19662.2,25684.9,27753.2,29784.0,19338.2,38926.2,43438.1,30899.8,172903.2,84498.6,13881.5,46855.2,97837.7,193326.5,27985.1,17749.3,0.0,90410.1,
349,0.804,17958.3,18628.1,18848.5,19866.0,18677.9,20143.5,21102.9,22842.1,18138.6,19892.7,13498.7,28162.0,31084.7,15169.8,18476.6,17731.9,27978.3,22013.1,22366.4,0.0,59516.6,
350,0.38,12491.6,13654.0,16495.0,15118.5,17357.1,19346.4,18975.3,23555.2,33459.6,13858.0,22411.2,50443.1,30830.6,19191.5,28492.3,27259.5,18389.5,24710.6,17091.6,0.0,83004.6,
351,0.216,21044.3,26814.8,21756.5,18525.0,22504.1,23429.6,20986.6,17439.1,21168.3,28822.9,16653.7,147554.5,58021.7,12413.3,42735.9,86433.5,95778.2,23702.9,19333.8,0.0,102596.7,
352,0.315,18818.5,29630.5,39307.7,34285.8,29362.7,42873.4,37780.8,17549.4,27126.5,19665.0,20339.2,71823.9,18859.7,12147.3,39312.1,84154.4,83163.0,23377.9,27615.2,0.0,132074.9,
353,0.227,7289.6,9139.5,10799.9,10723.3,7977.3,11476.2,10792.9,12770.3,10063.0,19136.4,43023.3,149038.1,40948.2,12259.9,71576.3,172870.2,116953.0,11280.1,18287.1,0.0,96407.8,
354,0.325,23012.2,33154.3,26648.6,20012.3,30670.5,33644.7,25931.4,10647.5,25541.7,27168.3,22515.9,154212.5,56416.3,7298.1,47678.9,139177.6,159834.2,15871.5,14732.6,0.0,104248.7,
355,0.324,15606.0,18504.2,11543.5,10610.6,17442.4,16790.0,11925.3,13221.8,14511.4,38084.4,24230.3,97593.8,43557.0,15157.8,30800.8,61567.4,135015.5,11546.5,13693.3,0.0,138588.9,
356,0.202,7385.7,9671.1,10865.7,11491.5,9414.5,11549.0,8469.9,11441.4,10922.2,23344.2,20407.4,158768.7,48248.0,9991.1,55148.2,108615.3,182844.4,5725.6,6332.7,0.0,116548.1,
357,0.334,13984.9,17008.4,16039.6,14047.4,14844.4,17094.8,16218.0,17638.3,18473.5,45887.7,28410.0,95864.0,53604.8,16148.8,39183.5,78825.8,191671.8,15804.4,15333.5,0.0,115937.5,
358,0.513,12735.5,13231.1,13075.6,8636.1,13641.6,14006.1,12722.5,14326.4,15732.4,22777.7,12716.9,28074.4,30455.8,12827.5,14688.4,19072.5,126943.1,11170.4,10431.0,0.0,118142.2,
359,0.3,12331.4,13711.0,14902.4,12436.3,11554.4,14680.6,14038.7,11359.0,12679.3,24415.6,22965.5,87898.7,37700.9,16624.2,33587.7,74317.8,67596.8,14692.1,14589.5,0.0,97292.0,
360,0.352,15430.8,17526.0,16705.7,13595.8,14222.6,15626.7,14100.3,14007.3,16845.8,46998.3,45049.8,134431.8,50031.7,11080.4,57296.2,180183.2,217376.4,9941.5,12982.7,0.0,126866.5,
361,0.536,15234.8,20070.8,18139.7,15379.5,18211.4,18971.9,18052.1,12852.4,15986.6,55113.3,28074.6,128087.6,65330.7,10217.6,49970.9,115603.7,184018.1,15383.5,21157.6,0.0,113208.0,
362,0.274,9935.8,11207.4,15681.4,24046.4,8965.6,14462.2,16510.3,10873.6,12808.5,89500.6,34368.5,77519.8,69323.3,12597.7,42102.2,107997.5,167379.8,32142.2,57689.9,0.0,155799.8,
363,0.298,13452.5,13847.0,19870.5,26085.2,18803.2,26334.5,29138.1,22555.3,42511.3,24144.5,38361.8,160242.2,56491.9,16316.1,66283.9,150973.0,101646.6,35845.4,19431.5,0.0,98782.0,
364,0.273,10338.9,17218.8,19375.2,16076.6,15654.2,20078.8,20543.0,15169.2,29801.8,21574.9,13149.4,55391.3,37975.4,11449.9,19255.2,22665.8,28458.0,26252.4,21704.2,0.0,133122.4,
365,0.228,8826.6,10346.5,12329.9,15274.1,10960.5,12469.8,12546.4,9726.8,14796.1,21926.8,21575.2,34483.7,22662.0,13711.5,18187.7,39441.9,39321.0,13202.6,22279.1,0.0,136717.7,
366,0.39,8378.5,10446.5,12160.5,10923.6,10717.2,13103.1,13655.4,11508.9,15225.3,13007.5,15138.6,30537.0,16314.5,8147.6,20131.3,32874.3,21357.7,13605.9,11998.2,0.0,129920.3,
367,3.285,10988.9,41786.7,35537.5,12080.5,11324.1,13424.1,12887.3,6928.2,11353.5,7508.2,5992.9,11975.9,7376.6,6940.3,7333.4,14886.6,8476.2,7991.3,7883.8,0.0,121033.7,
368,0.268,8989.0,6595.7,9214.2,9685.1,7917.4,8238.4,9754.8,8428.7,10583.9,10940.5,9442.9,14090.9,13371.2,9723.4,10725.5,10384.6,10801.8,10912.9,10817.9,0.0,135187.8,
369,3.54,13147.6,64791.1,46228.6,9043.8,17738.9,16850.7,15285.3,14833.3,11863.5,11147.4,12110.0,11740.2,10651.4,7452.7,13772.7,15378.1,14069.2,10806.0,10214.2,0.0,100448.6,
370,0.217,16942.8,9870.3,12493.3,18170.7,13114.6,12287.6,17550.1,18365.7,11083.1,20351.5,18636.9,16091.3,17303.6,17647.5,17343.8,18268.7,16453.0,24448.6,18597.3,0.0,107913.7,
371,0.258,34000.1,11810.3,13146.4,11061.4,11819.7,12159.9,14708.4,11796.8,16074.5,13985.5,13240.3,12406.6,15027.0,12949.7,11421.7,16285.2,16796.1,13686.5,11381.9,0.0,113843.8,
372,3.297,14216.0,65913.5,44358.2,14188.1,14261.9,17145.1,13118.3,10250.1,13133.1,16368.4,9845.6,12751.2,13497.9,10118.9,9474.6,11354.0,13010.5,13817.3,19746.0,0.0,73496.4,
373,0.191,8298.4,7546.5,7676.4,9077.4,6436.6,7400.2,7554.1,6817.4,7312.9,8461.1,7953.8,9050.6,8207.6,7970.6,6367.6,7160.9,9001.3,7391.3,8630.1,0.0,118845.2,
374,0.567,18642.9,26837.0,35156.8,45374.4,25118.5,32954.5,40376.3,20289.3,36917.6,27630.4,15470.9,26770.3,30605.2,15736.7,19864.8,19679.7,24410.3,40434.8,44236.6,0.0,82757.0,
375,0.348,17511.6,15362.3,11853.1,10675.0,15972.2,15400.4,11716.4,15664.3,15416.0,5312.3,14030.2,11858.8,7450.6,18074.6,14504.1,17012.3,6720.0,8500.4,7628.8,0.0,104144.2,
376,0.451,14794.7,12210.5,13437.9,19277.0,16493.0,15971.6,16003.2,20054.8,18744.2,29147.9,27227.9,22441.8,23208.5,24245.1,22024.2,25880.5,25254.2,23401.6,33110.4,0.0,65352.2,
377,3.63,7879.4,62958.9,44543.2,13521.8,15801.0,16223.1,15337.9,9745.6,15587.7,12106.4,10012.5,14491.9,12906.8,6288.8,11665.6,13594.6,12560.2,11957.0,8959.9,0.0,79653.8,
378,0.257,18629.2,25779.0,24916.3,18506.4,29027.9,33394.9,29180.2,22014.6,34799.5,27772.6,16450.3,30531.3,30777.3,12520.4,21644.2,21775.7,24305.7,30347.0,33929.4,0.0,87549.3,
379,0.208,10509.9,13972.6,18099.7,17929.1,13859.7,15498.1,18013.1,12256.3,17992.9,23195.5,8049.8,16410.1,20757.9,10022.4,9710.7,7603.5,18306.2,18837.9,23935.0,0.0,64831.3,
380,0.216,13274.6,14239.6,17324.2,17173.6,15532.9,16532.9,17844.9,14335.4,18318.5,19438.5,9481.8,16636.7,15994.5,10559.7,12858.2,9827.2,15964.5,17135.6,23315.1,0.0,50573.8,
381,3.788,23846.8,100504.9,92156.2,40146.9,38147.2,49739.5,44498.8,23006.3,39325.1,23751.2,15013.1,20469.0,26648.4,16804.3,18695.9,18727.0,19552.4,33970.3,30348.1,0.0,123066.0,
382,0.192,9841.5,12399.8,12556.4,16273.3,11599.0,11502.7,12552.6,14461.0,17199.5,11185.3,11585.8,15585.0,12449.7,12107.7,12770.2,12069.0,12155.0,13637.9,13452.2,0.0,65494.9,
383,0.229,13334.1,15538.8,21637.4,24591.4,15311.0,19904.2,24722.3,17607.2,21756.4,27212.8,15387.6,26674.5,28146.5,13541.0,19192.1,15504.8,23925.1,27673.6,31623.2,0.0,73859.1,
384,0.22,5730.0,3929.2,5004.2,8250.7,6093.9,6538.2,8332.8,6204.4,9753.4,17531.7,10499.5,16531.0,17963.3,8008.9,11736.2,17850.3,22121.3,11856.4,17877.2,0.0,82440.8,
385,0.239,8040.6,9822.2,12386.5,12764.3,11445.9,15034.4,14457.9,10912.0,14398.5,8804.2,13124.6,16964.0,10222.0,10000.9,18491.0,20201.0,12722.0,10141.3,10476.2,0.0,70781.8,
386,0.394,14731.5,18695.3,19114.7,18203.5,19085.5,20514.9,19185.0,14598.0,20232.0,12919.0,18882.2,13455.7,13902.4,15802.2,15556.6,14178.3,11727.6,18515.8,19751.9,0.0,54393.4,
387,0.296,18951.5,18572.5,16092.5,17745.8,18701.6,19473.5,16724.7,20924.1,22096.6,19445.0,16432.4,19949.6,18560.5,15807.3,16359.8,19518.9,17514.4,17739.0,22011.3,0.0,75311.7,
388,0.37,13244.4,15307.6,15761.3,12258.2,15213.2,14992.5,14759.8,13994.9,17806.2,9250.1,10174.8,18135.0,12149.9,12085.0,14013.1,10160.6,10005.8,11309.8,7983.9,0.0,87136.7,
389,0.361,21689.4,25424.2,24423.6,24080.8,27876.7,26108.6,23845.5,26266.7,33538.1,22749.5,19306.9,25832.6,23212.2,21961.0,21533.7,19493.2,26343.7,24403.5,28351.2,0.0,102225.8,
390,0.245,19202.3,20698.9,17167.8,17900.2,19148.6,19299.1,17801.9,15736.6,16240.3,22472.4,18700.1,16275.3,21197.3,20938.8,14550.2,19269.9,23291.4,19927.6,23530.6,0.0,96736.1,
391,0.284,18187.1,22432.4,23846.6,22499.8,23160.2,28653.0,28510.3,19035.2,31221.8,30005.6,15475.2,30761.0,27770.3,16540.4,19380.8,19506.8,29071.9,25543.1,24621.9,0.0,92441.1,
392,0.228,4550.4,8868.5,13087.3,17525.1,9926.5,12819.9,13677.2,9153.0,15549.2,12957.2,12461.3,12760.0,11209.2,6657.2,10581.8,21332.4,13289.7,16020.5,18656.9,0.0,69917.7,
393,0.348,16072.2,22906.3,28826.2,28872.7,18417.5,23468.0,25482.7,17952.4,25556.8,38355.7,15482.0,24919.8,32631.0,15230.6,20652.9,21376.9,32458.3,29367.6,39191.2,0.0,75378.3,
394,2.554,20516.3,50788.5,38107.9,15954.4,23165.0,23493.3,21967.5,25706.5,18580.4,10721.3,20590.2,16861.4,14659.1,22242.4,25033.4,16833.0,10388.2,15993.3,13718.4,0.0,104104.2,
395,14.936,17172.3,18911.8,20043.0,19793.6,11611.5,10202.3,10397.7,12143.0,10681.9,18150.4,10849.0,10208.1,11222.2,13876.7,11692.3,13130.3,14450.4,10768.8,19268.8,0.0,81185.5,
396,1.075,18814.8,21363.3,18204.0,20761.2,18120.4,20691.9,19815.8,15896.8,22834.3,20213.8,16239.2,25564.6,23481.4,17175.7,16955.5,26452.2,25806.0,19645.4,22968.7,0.0,119308.0,
397,0.225,13818.1,12522.3,11314.0,12065.7,14605.6,15677.4,14579.9,19250.0,19321.2,19811.4,31124.2,35678.7,27136.3,19081.1,35877.2,60413.0,30939.4,16837.9,17254.4,0.0,101382.1,
398,0.26,7300.6,6624.0,7527.7,7730.0,6070.6,6835.7,6580.1,7643.2,10281.7,7005.7,12506.9,20912.1,11417.1,7118.9,12223.9,26564.5,12676.8,7900.3,5445.5,0.0,100765.3,
399,0.445,14124.1,15496.9,15088.5,20258.9,14665.8,16833.2,14342.1,14744.7,12185.1,14278.0,9634.7,10658.5,11819.1,13038.8,7812.9,11041.6,9162.3,15180.5,22838.9,0.0,99366.7,
400,0.358,5711.8,6608.6,9227.5,9072.3,8164.7,10908.8,11822.1,8123.3,8434.6,10027.6,4310.1,8859.8,9793.3,5504.4,7744.4,6398.9,9620.5,10720.7,12495.8,0.0,75712.8,
401,0.422,12570.0,10097.0,13463.1,17612.6,10944.7,11375.5,12514.2,11776.9,13009.2,20345.4,13889.3,10283.4,11968.2,12740.5,11480.6,10154.9,11805.3,14645.3,27462.9,0.0,93363.9,
402,0.327,8297.7,9247.1,6426.8,6662.6,10652.7,7998.8,7001.5,8913.3,10681.1,10706.3,9371.9,13928.6,12083.9,6940.1,11690.5,12402.5,12023.0,7530.5,11804.6,0.0,85838.0,
403,0.291,7441.2,9889.1,11786.8,12621.5,7973.5,8310.0,10552.6,9864.8,10399.8,12725.4,8942.5,12715.6,13716.3,9702.0,9440.1,10100.5,11071.8,12601.0,12621.4,0.0,125589.5,
404,0.32,7535.0,8434.6,8004.7,5882.2,6874.0,7577.3,7524.2,7058.9,9551.5,5004.9,3364.4,4138.2,4894.5,7004.5,4442.9,3501.2,3514.5,6239.1,6062.8,0.0,88814.5,
405,0.247,9838.1,13779.0,14948.7,14968.5,13014.4,17834.6,17597.6,7890.2,16321.7,20342.7,3937.1,16899.8,23456.6,5460.1,7019.3,7073.8,18888.6,21554.6,23647.3,0.0,136778.5,
406,0.277,11154.8,12158.6,14023.8,16784.5,17600.9,16534.0,17786.2,20217.8,17535.0,17526.1,12010.0,16493.6,16950.5,15394.4,16990.7,13500.1,15631.4,17864.9,26293.4,0.0,124402.2,
407,0.349,7150.1,10831.0,14576.0,13052.4,10452.2,9860.5,12904.7,9366.7,13211.3,9539.5,9425.5,17389.5,13149.8,9153.2,10934.9,11246.4,12995.4,11799.6,8823.0,0.0,94906.0,
408,0.304,8645.0,12065.9,25263.6,29682.1,15769.5,19414.6,24317.1,14988.7,25399.1,20345.6,7484.5,48371.2,28484.9,8279.9,15557.4,14449.2,21195.3,27697.3,23712.5,0.0,148548.0,
409,0.299,11225.6,11110.7,19716.7,17773.5,13576.0,16549.8,17380.7,10276.5,13520.0,19182.5,8044.5,33228.3,22197.6,10854.2,9711.0,20021.0,21138.4,18739.9,18562.8,0.0,85345.5,
410,0.271,5879.7,8459.0,9501.7,10865.0,9340.3,9473.0,11181.0,9369.8,16977.7,15358.4,8277.2,71948.3,25815.9,8780.1,16185.3,21248.2,29151.6,14250.8,11476.4,0.0,108728.7,
411,0.269,8902.2,14571.7,16178.2,16731.1,12636.3,15622.9,15727.0,14279.9,17756.8,25154.4,13258.0,97770.3,36754.9,8190.7,24172.1,59287.9,41378.2,19056.3,23180.3,0.0,98486.9,
412,0.343,20873.1,22724.4,25923.2,29543.6,23418.7,26763.4,31341.5,24992.9,37412.0,29048.4,20088.1,66032.8,39387.3,20446.2,33655.5,35283.1,33884.4,32587.9,29245.8,0.0,107187.1,
413,0.266,6857.6,6541.8,6825.4,5528.1,7304.4,7835.2,6675.4,5266.6,8018.5,4593.6,7993.2,27626.3,10225.0,5039.8,10686.0,22746.3,9353.4,7858.5,5259.9,0.0,130165.5,
414,0.276,19619.0,15616.4,15494.6,17514.6,15226.2,15229.9,16717.0,16593.1,17233.8,23854.9,20092.9,38234.1,25251.7,22889.8,20067.2,20179.6,24379.0,21564.4,21226.8,0.0,160687.2,
415,0.341,23899.1,19815.4,17294.4,21323.5,23180.9,22566.7,19623.5,30614.6,26130.4,25667.1,29673.2,41448.4,26547.3,28602.7,34708.7,43845.7,35111.0,22304.8,28628.1,0.0,102121.2,
416,0.251,17137.4,18138.7,18080.2,14390.2,17298.1,18292.5,17603.3,18393.6,23282.0,19715.9,21286.7,33008.4,26871.7,18361.5,23010.1,23562.3,24386.9,21129.2,21528.8,0.0,154854.8,
417,0.521,13109.3,17841.1,21474.5,22709.5,15974.7,16899.9,17183.1,11738.4,18274.9,21098.6,15028.7,20611.4,18511.1,11692.9,14563.2,24331.5,21343.9,18920.8,29400.0,0.0,95633.8,
418,0.269,10852.2,10562.5,14759.0,13895.4,13885.9,15168.8,14972.4,13625.5,15059.4,14603.3,12367.6,38556.2,25717.8,13345.4,13890.5,27168.0,45621.8,14342.4,14162.0,0.0,125075.2,
419,0.495,14008.8,13895.3,11736.5,9833.3,14959.1,13049.3,10368.3,16828.0,16391.4,12388.3,16794.1,42349.3,19403.3,6659.6,22613.3,45592.7,36373.7,12351.0,8398.7,0.0,120941.8,purple from the dot
420,0.404,13107.1,14869.4,18815.5,18015.1,13012.2,13907.1,17696.6,14357.3,14947.6,20729.6,10276.2,32094.1,16132.8,12165.7,17312.9,27182.8,16181.9,17919.6,24654.5,0.0,121188.3,
421,0.31,17714.2,12546.4,13379.2,17467.1,11628.6,11572.3,12338.7,21080.6,12000.8,24311.3,37622.8,40074.2,19371.8,31631.8,33291.8,48369.6,24947.2,15940.8,22945.2,0.0,74894.1,
422,0.272,5719.1,8695.7,12272.5,14700.9,9213.5,10401.3,10474.6,7124.7,9809.7,13414.5,7043.7,13536.3,9066.8,5943.9,8653.4,9733.7,10325.5,8755.2,12057.0,0.0,101754.7,
423,0.315,26505.1,25962.4,24564.8,24770.3,22189.6,24001.8,23148.6,29517.8,26870.9,20422.1,17594.9,53709.8,23347.2,17756.9,28468.0,36430.1,19688.9,23542.9,27121.2,0.0,97246.3,
424,0.328,14112.2,15028.7,17418.4,19999.2,15905.8,16672.5,19362.1,20133.2,26583.8,21795.7,20054.9,89505.7,31546.5,15611.9,40230.6,61322.0,26347.3,23669.5,15880.2,0.0,103721.6,
425,0.313,8765.9,11717.4,14406.6,15273.9,13095.0,14716.6,16927.6,11083.6,14416.9,15705.7,7432.7,15204.6,11404.1,9353.8,8843.7,8243.2,12027.5,14595.2,17037.8,0.0,92593.2,
426,0.285,12375.5,14852.8,15800.2,16526.5,12747.5,16848.6,15845.7,9823.2,13384.6,13029.4,9153.2,13481.8,16862.3,11646.0,9667.5,11658.2,13153.1,16498.3,15839.3,0.0,81994.0,
427,0.249,16446.0,16197.7,15028.2,14649.8,17798.7,20601.1,16721.7,13243.4,17348.2,12178.9,12240.6,13675.2,12917.5,15247.1,11403.6,11720.1,15375.1,14197.7,13099.8,0.0,95815.7,
428,0.394,19662.0,22172.3,27187.1,25914.2,25892.4,30892.3,29712.3,19865.3,30892.8,32307.8,13117.2,39427.4,34037.9,11757.4,21859.7,26754.3,41261.8,31148.3,30110.0,0.0,102894.4,
429,0.365,14300.8,13363.0,16187.6,15510.1,15729.3,17367.7,17255.7,14908.1,16529.9,17220.4,14359.7,28033.4,22074.3,15572.5,20301.7,22501.1,23584.8,17150.1,16006.2,0.0,90685.5,
430,0.384,11773.3,9571.8,11231.0,15478.5,12173.4,11533.6,12488.2,17991.1,11982.2,17484.2,21129.4,19106.7,20678.5,16110.2,21425.5,20030.4,15567.7,17157.4,21473.8,0.0,100744.8,
431,0.331,6289.0,8210.9,12211.2,11532.6,10394.4,11334.1,11973.2,10842.2,13992.7,11029.4,10889.9,10659.7,10654.8,10920.5,12435.8,12848.0,7616.4,13414.8,13520.5,0.0,134458.6,
432,0.378,15756.2,14427.8,13641.0,15214.2,15436.2,15181.5,12806.8,16063.6,14827.5,13587.7,19222.5,15472.2,15362.6,18059.6,14172.9,14886.6,12965.1,15518.6,14964.4,0.0,163591.5,
433,0.262,12931.0,10820.6,13500.2,12325.5,11527.1,14491.8,13725.2,14113.3,17340.2,18943.9,11330.5,20721.6,27080.2,10604.0,15920.9,16969.0,25149.1,18558.7,14140.6,0.0,155701.1,
434,0.41,19700.7,19727.8,24040.6,23350.2,22158.2,24249.1,25503.9,26788.4,30752.5,30378.9,21258.6,34860.7,33830.2,19979.6,28534.7,24048.7,28884.6,25148.7,34661.8,0.0,196092.1,
435,0.346,7161.9,12180.2,14057.9,13194.6,12437.5,14541.8,13826.0,8807.8,17118.1,10237.7,5031.2,8888.9,11555.6,5692.9,6723.1,6739.4,7635.4,11815.1,12347.6,0.0,128131.0,
436,0.519,11701.3,14819.6,16043.4,12442.9,13148.1,15322.3,14713.5,10854.2,13989.0,14514.0,8707.3,14346.7,16184.2,8572.6,10450.9,11913.1,17649.7,13006.3,12593.3,0.0,132629.2,
437,0.307,13041.8,17592.7,21298.8,18219.2,20154.9,23227.1,23020.8,17866.8,27411.0,18229.0,9909.1,23974.4,24761.6,11529.1,16464.9,15886.0,21637.1,22128.1,18513.9,0.0,173231.2,
438,0.256,9308.6,11130.4,11667.4,13193.3,9304.4,10627.6,11214.1,11163.3,10912.1,16229.9,10115.7,12095.5,14684.0,12747.9,10967.7,8911.7,17265.3,13705.4,16003.0,0.0,128249.9,
439,0.262,13966.6,14317.3,20610.8,24500.0,17452.0,23247.7,23215.7,16277.4,22886.7,32683.9,19016.7,30950.8,35542.7,13490.4,20825.1,26175.6,44613.6,28479.5,24690.9,0.0,130853.7,
440,0.48,19348.7,19479.8,23118.7,24601.9,19664.5,25821.8,25039.1,18933.1,27452.9,25790.6,8936.0,26747.3,24747.2,12265.3,15729.5,12498.0,28661.4,24167.0,30027.0,0.0,139947.2,
441,0.697,28616.0,24319.5,23405.7,32802.7,28043.4,25513.7,24988.7,32227.2,33655.2,42072.0,32975.4,69967.0,45564.9,30594.7,43798.3,49378.8,52870.4,32776.7,38433.6,0.0,205723.6,
442,0.378,10142.5,10692.7,12215.2,13224.8,12846.8,12241.4,11958.3,11960.8,13559.2,21189.3,13203.6,28219.9,26042.2,8682.2,16315.0,20326.2,22923.6,18088.5,18630.5,0.0,138601.9,
443,0.226,10439.5,11738.3,9872.4,11553.8,11785.9,12208.4,12184.2,13337.1,14400.7,11517.1,10426.7,13487.5,10229.6,13843.2,10967.3,8634.5,10312.8,13024.5,15916.5,0.0,206996.8,
444,0.453,17219.7,22474.4,26779.6,20912.9,22575.9,28219.0,25042.3,15112.2,27624.8,24548.4,11044.2,31399.2,28678.3,10137.8,17196.2,33679.6,46732.7,25616.4,28567.1,0.0,277924.1,
445,0.643,18591.7,24488.8,21708.7,15437.2,20141.4,17798.0,15705.7,18643.2,17051.4,19615.4,24857.8,19638.4,18400.8,18730.8,20281.1,17744.2,18896.2,17792.5,21006.2,0.0,184600.9,
446,0.386,19749.6,22151.9,25341.0,17552.7,26733.4,28511.4,26355.4,25650.2,31726.0,25858.6,25147.4,50031.2,28191.7,17931.6,35343.0,57200.1,44675.0,20451.1,19250.2,0.0,191550.3,
447,0.544,30636.5,28867.1,25243.9,25135.7,31860.5,31321.0,27170.5,31187.8,33517.9,41274.2,31187.4,90785.9,59649.4,34121.1,39966.5,58380.7,118984.0,30017.8,26192.8,0.0,265071.2,
448,0.333,17823.5,20367.5,17845.6,15835.7,22830.9,22943.9,21074.3,18283.9,25865.6,22997.7,12628.7,83792.0,31953.6,10927.0,29494.8,41961.4,41136.3,20964.3,18455.1,0.0,232780.0,
449,0.29,12568.4,18562.5,21594.2,13879.8,15378.6,17132.7,19514.7,11369.6,19781.3,22318.9,11185.5,31960.4,27619.8,9717.3,11432.2,23071.0,33804.9,21818.4,22510.6,0.0,203729.5,
450,0.334,15502.1,18995.3,24117.6,24379.8,22242.7,24342.5,24291.0,18871.2,27073.6,25116.0,14635.1,29403.5,23363.6,13469.9,23307.8,29173.7,22785.4,24556.2,24753.4,0.0,211106.7,
451,0.497,11502.8,14015.1,18153.2,19610.9,13460.7,17787.0,16846.9,12574.7,17738.5,19658.7,11819.4,17396.5,20372.3,11906.9,13206.5,14260.3,16642.3,19693.9,26439.7,0.0,264477.0,
452,0.308,10647.4,10974.5,13082.0,11676.0,11652.1,15355.3,14531.8,11566.3,12571.1,7930.0,9273.0,14898.8,9561.2,9619.2,9044.0,10235.9,9737.8,12893.2,8841.3,0.0,242853.0,
453,0.348,8040.7,7549.4,7907.6,8260.7,7759.5,6884.3,7023.6,6931.7,7624.8,14208.2,10062.2,10822.4,11231.6,9388.4,7950.4,11542.1,11312.0,8928.5,16394.2,0.0,287041.2,
454,0.38,6117.5,10880.6,11965.8,14723.6,10899.6,14509.0,14087.2,10996.8,16384.7,18142.6,9131.7,15657.3,16772.4,9214.7,12437.1,11673.0,17783.9,14242.2,16602.3,0.0,252856.0,
455,0.388,6430.5,7670.0,11697.4,9523.9,8628.3,9227.1,10225.4,9888.0,11917.5,12123.1,12913.2,15328.5,13604.8,10618.4,11357.6,14095.8,12257.8,10143.6,9634.9,0.0,257073.5,
456,0.344,14834.6,17760.2,19996.0,22711.4,25185.3,27205.3,25580.2,24362.6,33426.0,17578.6,10780.8,22067.9,20202.5,14403.6,17767.7,11241.6,21116.8,22173.6,21605.4,0.0,332204.3,
457,0.35,9442.8,14273.0,17287.9,13985.4,12651.7,17111.6,17238.2,10623.3,14861.1,8971.3,6068.0,8864.8,12373.9,7894.4,8060.5,6456.4,6697.8,14971.0,16102.3,0.0,359831.4,
458,0.298,7984.2,12959.6,17881.8,18899.8,12052.1,14573.5,17872.8,12657.5,17296.6,20801.4,18528.3,16748.3,25875.3,11632.4,16506.5,24811.4,23114.8,21140.1,23795.4,0.0,341586.7,
459,0.339,4898.2,10443.3,17954.6,15270.0,10456.0,14616.1,15334.9,6985.0,11684.5,12053.2,24390.6,30795.4,16089.9,10514.0,13266.1,37080.1,22384.6,12408.5,13481.8,0.0,342168.0,
460,0.368,12065.4,18413.8,21265.6,19052.1,18481.8,20023.1,19129.3,20927.2,29997.4,25516.4,13834.0,54567.6,38953.1,13822.4,22864.2,22651.1,35936.5,26746.5,22827.4,0.0,284535.2,
461,0.345,15898.7,21018.7,20533.5,18751.2,22427.0,24244.9,22821.1,13919.7,28545.6,15317.6,12406.9,23027.1,22288.6,10452.8,13911.3,19441.2,15494.3,23373.4,20583.6,0.0,338987.8,
462,0.44,25542.4,31022.9,30841.6,29561.5,37113.5,39720.4,35927.3,40037.5,46019.8,20156.2,21021.6,48953.5,31320.8,27479.5,29848.7,27398.5,48646.1,30734.8,21442.6,0.0,346059.4,
463,0.579,18219.1,25018.4,32457.4,30190.6,26251.9,35219.9,36655.6,22512.3,38640.4,29849.4,17795.4,49711.3,34486.6,15397.4,24865.9,55296.9,41420.1,36512.5,29915.6,0.0,266138.4,
464,0.485,18265.0,16587.2,16187.2,19643.7,14127.6,14792.9,16739.8,12644.8,12363.6,18546.4,15656.8,13480.4,15105.7,14935.5,12983.7,15945.1,14557.7,16548.4,18077.1,0.0,297792.5,
465,0.318,8108.4,6670.3,9494.3,12453.0,9523.7,9516.9,9896.6,8053.3,10420.5,16707.8,7957.7,26298.3,18066.8,6183.6,12328.2,18830.3,19851.8,13504.0,14013.7,0.0,306011.7,
466,0.301,11355.8,17785.1,26080.4,22405.6,15871.6,24255.4,25452.9,12541.0,26950.2,30364.1,27597.9,111479.4,45464.3,8070.6,32107.2,96541.9,120089.3,22173.1,20621.4,0.0,303417.0,
467,0.252,5831.8,12085.8,13214.3,14630.7,11156.2,15478.0,15057.5,6942.8,13524.3,37412.4,40295.1,80408.5,31102.0,9176.3,34193.2,120074.7,82205.1,14042.4,25809.0,0.0,286965.3,
468,0.252,7646.6,6955.3,6779.8,9051.8,7311.0,7849.0,7413.0,11033.6,9996.3,11495.3,13355.1,15732.8,10192.7,8918.1,16362.0,18834.3,10556.1,8400.7,11848.1,0.0,230769.6,
469,0.313,9268.7,9705.1,10432.9,9706.9,10620.8,9393.0,9705.8,7702.2,10282.0,10440.6,13061.8,8206.2,8581.1,8968.1,8138.5,11945.7,9046.1,9757.7,10531.8,0.0,284147.8,
470,204.247,1707370.7,98323.3,313636.4,137825.7,30001.9,31485.1,34229.2,14544.2,38302.6,19322.1,19219.4,15155.0,16457.6,10994.4,12144.4,40089.6,22811.3,27969.1,25157.0,0.0,267392.2,
471,64.459,56026.2,78026.5,32450.9,11762.5,22410.8,19212.3,15536.4,16572.7,17466.7,9165.9,21689.4,20495.5,12421.2,12692.7,21679.5,54143.6,17527.1,11706.5,8893.6,0.0,238603.3,
472,0.635,14154.4,20084.8,13443.5,12553.2,15134.1,15924.7,14714.3,14233.6,18593.1,15678.8,15631.9,17122.3,14724.8,13276.0,12741.0,16846.8,17344.0,13868.5,13589.0,0.0,174340.6,
473,0.281,16414.5,24605.9,28945.6,20320.6,24622.4,29203.0,26062.8,26111.8,37261.2,22531.6,22746.9,129261.5,47528.4,18576.6,50453.5,76282.6,77165.0,28975.2,20055.2,0.0,209512.9,
474,0.357,6087.5,7927.8,10117.5,9446.3,6639.0,7436.1,8743.7,10384.2,13829.7,26076.1,15550.0,73960.8,38592.0,9171.3,25441.1,40109.6,64053.7,14420.8,15701.7,0.0,167338.3,
475,0.471,7950.1,10366.9,15590.4,10918.3,9956.4,11056.0,11853.1,12351.4,20209.1,35327.9,10709.5,154758.2,76020.5,7394.3,30250.0,44909.9,119463.4,23194.9,15865.1,0.0,161399.1,
476,0.337,17612.5,16312.2,12321.7,15537.4,16390.4,16051.3,18834.2,15832.9,28492.5,26470.0,17114.3,169088.2,57167.7,15004.7,39370.3,64024.2,76245.2,22535.4,19058.2,0.0,169444.5,
477,0.511,9484.9,8361.5,11525.8,11548.2,11820.1,13436.4,13926.0,12519.3,17796.1,24694.6,11039.9,81510.3,37548.9,8573.2,23543.7,44995.8,62495.7,15609.7,19222.0,0.0,139062.7,
478,0.454,25859.9,23971.5,22411.0,24215.1,26939.2,24632.0,25802.5,30013.9,30751.7,37165.7,38267.6,88183.3,42151.1,33429.8,42328.6,71588.9,58605.8,27669.2,39401.2,0.0,174239.4,
479,0.82,10626.4,9570.6,8496.6,6527.1,9000.1,8360.6,8016.1,8957.5,12687.0,32578.4,13101.0,66791.5,42386.3,7911.8,18616.2,39171.9,123269.7,10775.8,11350.8,0.0,210652.4,
480,0.349,22697.7,24417.0,31660.0,30510.8,29928.8,35781.3,36753.0,25438.7,36277.5,25038.2,17424.4,116064.6,42902.3,14870.6,42057.3,93872.4,73755.6,34196.5,21034.7,0.0,187454.5,
481,0.276,9116.4,12313.0,20332.5,17638.3,17583.2,22984.3,22618.4,22505.2,35431.6,16686.2,30543.5,103649.1,25602.1,10420.1,63676.5,110021.5,16646.4,23953.4,13925.7,0.0,174011.1,
482,0.445,25122.9,36896.0,48655.8,35240.2,43462.7,51227.9,46581.4,40069.8,67081.7,36064.5,36970.3,258573.8,99046.2,20602.5,79945.2,131430.6,181132.1,42460.3,26415.6,0.0,161833.0,
483,0.322,14660.0,19569.5,29526.7,28842.3,25199.9,30872.2,32874.4,25306.4,43106.0,24429.3,23723.5,129275.9,38706.1,13183.4,53407.7,81908.9,40000.4,31308.2,26566.8,0.0,114653.3,
484,0.239,12254.6,11807.1,13994.3,14979.1,12077.6,14630.8,13811.4,12090.4,13363.1,22292.6,19818.4,46838.2,10056.3,12725.2,25880.8,73383.8,35397.5,10180.2,19478.9,0.0,176953.0,
485,0.346,10041.6,15297.0,19056.9,15089.5,13450.0,17144.2,18450.9,16680.7,24043.6,15487.5,11129.3,68056.0,28489.0,8924.1,26064.2,31202.6,27354.8,19004.1,15128.9,0.0,167766.9,
486,0.278,9844.9,13036.4,16272.0,16314.5,14512.7,18378.3,19376.0,15773.4,23201.6,46344.2,17909.6,92019.3,57873.5,9041.6,29163.5,68040.6,101141.1,30757.4,27929.0,0.0,187642.4,
487,0.262,7574.6,6419.6,7719.8,9527.4,7863.3,8095.6,7808.2,10988.8,10580.9,13976.1,6850.9,6750.9,9748.2,7772.4,7019.6,3240.7,8082.9,9237.7,19579.9,0.0,141115.4,
488,0.401,21121.8,28445.4,35730.1,30712.7,25173.7,29065.0,29074.2,14645.6,21748.4,23438.0,29949.6,78967.9,27266.3,20066.5,33593.5,108221.3,92208.9,24586.0,22334.7,0.0,195727.8,
489,0.314,12001.0,11261.9,11881.6,9617.8,14874.3,13804.7,13192.9,22511.1,25011.7,26227.1,29647.6,96742.4,41002.8,20728.5,41614.3,67773.3,66905.4,18967.6,13905.5,0.0,132054.1,
490,14.851,24177.7,33425.5,29432.7,22555.4,23940.9,27322.5,25154.6,17339.4,21172.3,22771.5,20594.5,24066.1,18211.6,18216.5,21143.8,37003.2,20193.8,20426.5,25030.8,0.0,138256.1,
491,0.251,22886.7,27980.0,23087.3,18917.1,21673.9,23696.7,20561.2,14046.7,13176.5,35144.9,40993.9,137335.6,48956.4,14363.6,64482.1,184445.7,159790.5,12443.4,15941.3,0.0,104645.6,
492,0.258,8888.5,17106.7,24931.8,23503.2,19370.5,27702.1,27931.9,22690.8,39301.4,49991.9,45889.5,254815.5,112021.3,12736.3,87128.2,184689.0,220470.8,38536.9,30163.5,0.0,130062.5,
493,0.296,11693.6,15606.1,20710.1,20122.5,20040.4,23457.7,24657.3,24798.7,29855.3,28154.4,35866.2,176397.0,51110.5,10552.0,88147.4,174605.2,103170.3,24790.0,22012.0,0.0,145805.4,
494,0.315,20202.2,24211.9,27373.3,20734.9,22105.2,24869.1,24647.6,17565.9,28904.2,25803.2,16549.5,76670.7,32289.5,11273.8,27680.7,68802.3,75935.4,23461.3,19219.5,0.0,155341.7,
495,0.864,22653.1,25073.1,27068.7,22333.5,22161.8,23641.8,23885.4,28614.9,29827.5,17815.4,43520.2,90178.1,30808.5,24421.6,55612.0,127165.6,42008.9,29666.6,26071.2,0.0,126941.8,afterglow
496,0.343,22187.8,23773.3,26666.3,20765.3,19736.4,21860.5,22250.5,16349.1,18876.8,15963.0,14324.8,27974.6,14653.0,14789.0,19442.5,31241.0,23578.4,17386.9,16189.6,0.0,141959.5,
497,0.281,9474.2,13184.6,19619.3,19563.2,17686.7,21593.9,22363.1,17923.2,30360.5,46559.9,27550.1,126362.6,67117.8,10999.4,48342.7,92613.1,125865.7,27127.7,25728.1,0.0,126845.9,
498,0.285,9850.9,19124.6,24928.0,14924.0,16939.1,23206.8,20337.9,15406.3,20851.8,27740.7,20065.0,88703.9,31987.7,6314.0,38405.8,95251.5,57100.7,19431.2,16231.2,0.0,149478.1,
499,0.225,5182.9,10591.8,14091.3,10682.2,6222.7,11257.0,10666.0,6859.7,10668.9,17183.3,29638.2,138785.5,29111.0,2932.3,68509.5,177622.3,71678.4,8404.8,12426.6,0.0,135823.6,
500,0.413,17298.0,18517.7,29554.0,27477.1,22519.0,29582.7,29681.0,38928.2,32442.7,84347.7,95142.3,272376.2,112212.2,38428.7,144740.4,291459.0,317147.6,33477.5,36545.4,0.0,144446.9,
501,0.302,15490.0,17762.6,25326.2,17757.2,19302.7,22516.5,24211.7,28001.2,34687.8,35842.8,30779.8,197601.9,79698.1,17442.1,63765.5,106375.9,206124.2,32260.4,21339.4,0.0,153591.1,
502,0.362,38856.3,42781.2,38855.4,33126.0,35846.8,38911.8,40251.4,31564.2,40617.1,71698.0,29462.1,139202.3,88450.0,35792.6,40884.0,96521.9,185276.2,43412.4,53852.7,0.0,167201.2,
503,0.37,8479.8,13785.1,30424.9,38060.4,17861.1,27425.2,32862.5,11696.2,22466.8,32453.9,23316.4,115026.5,36838.7,9222.9,31201.4,57433.3,86485.9,23351.2,25750.1,0.0,148164.0,
504,0.202,5722.0,12354.7,15200.9,16695.6,11609.6,18802.7,18064.3,13816.5,26309.7,23290.6,36723.3,102841.4,21384.5,7068.9,57025.8,113128.7,39690.5,16582.6,18342.7,0.0,103804.7,
505,0.312,18374.9,28837.5,38844.3,35339.5,28287.4,36916.2,33844.1,17943.4,35342.1,88363.1,30671.9,248418.0,116794.7,19530.2,57136.8,106817.3,284419.0,40194.7,33607.0,0.0,120045.8,
506,0.292,17908.7,23124.8,26909.6,23574.6,22691.9,27231.9,29479.9,16357.7,19661.7,51749.2,50060.6,171347.6,79412.8,17788.3,63342.8,179681.6,236940.8,21872.8,20896.8,0.0,149509.3,
507,0.396,13638.4,16952.4,26669.9,24124.5,15899.4,23059.0,23399.5,19734.7,25389.5,38201.3,57085.3,205562.4,66665.1,20967.5,84187.7,172755.4,179565.7,18608.3,18639.9,0.0,118233.4,
508,0.253,15116.0,14197.9,18574.4,19373.7,13554.3,14473.7,18224.4,24198.9,17251.5,42521.0,44580.0,100213.4,56788.4,21726.6,62580.4,102111.0,124680.8,22667.1,23329.5,0.0,157091.0,
509,0.255,24352.9,30102.9,35837.3,30113.2,30875.7,33932.4,32185.3,22776.0,36081.8,29650.6,23640.8,153699.9,58745.7,16174.1,51390.6,117948.9,125634.8,30678.5,30911.9,0.0,139639.0,
510,0.501,27475.6,32222.4,36604.2,38531.4,33394.2,36651.7,40744.9,34328.2,48978.1,63589.0,32257.4,154226.2,99775.2,23595.9,66183.0,105042.0,176818.1,50470.8,35517.8,0.0,117077.5,
511,0.237,12726.0,13323.8,15933.7,16822.3,14372.3,15577.7,14758.9,15006.4,16159.8,50670.5,37679.9,147985.6,69474.7,13802.7,65671.9,144753.4,172833.2,17318.3,25329.3,0.0,163439.7,
512,0.266,14468.1,20112.0,22305.0,25955.9,19008.1,21405.6,22823.6,14806.1,23850.4,28222.2,13656.4,88519.5,54095.8,11070.2,29592.2,56362.1,102907.8,23713.8,25616.2,0.0,145184.6,
513,0.306,10920.1,10643.5,11359.7,12377.5,8059.4,8880.6,8909.8,5917.7,7714.3,22691.6,15963.0,49622.5,31289.0,5380.2,21359.8,57570.7,65614.7,12763.5,14850.4,0.0,143518.8,
514,0.241,20292.9,31302.8,35699.4,28353.7,31087.2,42736.0,37816.2,21884.9,45176.3,18803.1,23149.5,98972.5,32884.0,16385.8,26778.6,49685.2,54172.1,28805.8,25702.7,0.0,168206.0,
515,0.223,17866.0,26526.1,39837.2,33029.1,26856.3,39167.0,43275.1,18094.1,37634.3,42652.0,40929.1,160858.8,64508.5,13695.1,67148.8,138780.6,161537.0,38956.4,27670.6,0.0,178617.9,
516,0.297,21344.8,32153.5,37885.2,28340.1,35067.4,47529.3,40197.9,22161.0,42012.9,48297.1,25704.3,133580.0,64323.0,17338.8,44176.1,144379.6,185686.8,30634.4,31374.7,0.0,145108.6,
517,0.402,20879.2,26165.8,29935.3,28011.4,27505.7,33489.1,31316.2,35776.1,42894.3,34427.3,38492.4,152649.5,54587.4,27103.2,80770.6,130727.3,100808.1,29188.3,26587.0,0.0,165715.3,
518,0.316,13060.9,10931.2,10184.2,10101.7,12476.2,12575.3,9381.7,15058.1,16455.7,15724.7,12614.5,51092.0,20942.2,11516.0,24421.3,38528.2,59436.0,8166.8,8681.9,0.0,132919.1,
519,0.396,19349.0,31428.8,36357.7,26541.6,33518.3,39316.2,35384.0,22531.4,40002.8,43415.2,16007.3,116084.3,82134.5,12040.1,34754.9,59621.3,142405.5,27610.7,22509.2,0.0,186302.7,
520,0.36,4587.1,9342.6,18175.3,19061.4,9403.7,14507.1,14852.5,6708.2,16363.5,27496.8,24472.2,79714.4,49621.4,7153.9,33998.9,86688.1,98189.6,22634.1,19198.9,0.0,154373.9,
521,0.265,12567.1,21195.7,29348.3,31949.2,20134.5,27285.6,32097.9,20100.2,27970.6,26546.4,51717.0,166150.0,41741.3,16959.7,96298.6,204891.5,108126.3,29318.2,25878.3,0.0,193789.4,
522,0.222,8298.6,12021.5,10014.5,7559.6,11596.8,14643.2,10861.5,9953.2,12582.1,41426.3,51054.4,158516.9,59801.7,10714.5,69425.8,209391.9,234400.6,10586.0,8720.8,0.0,188201.5,
523,0.214,10705.6,17024.5,22260.4,14225.4,18730.3,24020.5,22697.1,15540.0,19433.4,39681.3,38725.9,131387.9,52286.1,11008.0,57649.2,179612.7,183307.6,16793.6,18151.5,0.0,193845.7,
524,0.23,12602.3,15132.4,19780.2,19412.3,17063.5,20889.9,20318.6,10473.5,14272.9,36134.9,29900.0,120243.1,47128.2,10564.3,47430.4,110529.9,153815.4,16855.5,16988.7,0.0,166595.7,
525,0.249,22764.5,29724.9,34568.0,26334.6,30181.0,34885.2,32461.6,17348.7,20745.2,35372.1,25027.4,73990.4,33650.0,13810.1,33308.0,91829.8,90119.4,21647.5,30805.5,0.0,198782.4,
526,0.299,23845.4,30034.3,31910.0,28113.9,26939.8,31539.1,26591.3,23656.4,21648.7,25822.8,35822.2,118790.6,42006.1,22101.1,53664.9,118060.7,72541.7,18777.9,20743.9,0.0,204311.1,
527,0.327,8183.3,8423.8,11997.5,10179.1,9914.1,11263.5,11266.1,23761.7,26335.0,31352.4,46259.7,187527.8,85128.5,17840.4,90731.9,138564.7,118907.8,23429.7,18362.9,0.0,178396.8,
528,0.28,22310.8,25512.7,23567.2,16162.3,23808.8,25158.1,22220.4,23297.7,26671.2,27960.4,17749.9,96568.9,48829.2,21167.9,27098.0,48498.8,96837.1,21882.1,17281.5,0.0,189084.2,
529,0.237,11013.8,17879.3,21895.7,15912.4,21459.9,26905.0,24271.6,10735.2,23190.8,27358.3,32449.7,86739.8,24743.0,7728.9,37574.9,122941.4,118884.8,12237.4,11375.4,0.0,205881.2,
530,0.23,18778.0,19026.1,19490.8,23487.8,18050.3,19993.8,21210.6,27398.8,25163.8,56785.1,40555.6,117381.0,55823.7,26213.2,62764.0,113307.5,154895.0,22461.5,32376.0,0.0,247234.8,
531,0.253,9122.7,15747.0,21891.2,18269.6,16007.7,25723.9,26537.4,22380.7,36435.3,21717.9,37313.3,168568.3,39310.7,12312.0,81138.1,141132.9,24779.5,27201.9,21816.5,0.0,197539.8,
532,0.354,16555.3,20865.1,20632.3,16932.9,27333.3,27869.5,26770.9,21269.8,36094.1,65995.0,26239.1,142652.8,84422.0,14225.3,49350.3,153372.3,312057.4,26608.3,20758.9,0.0,175929.6,
533,0.617,8512.0,13388.2,16583.9,22324.5,13140.6,19434.6,23663.1,18320.9,34747.4,28772.5,23657.8,93516.5,50090.9,7372.5,43177.4,87193.6,62143.2,30769.1,21980.6,0.0,198274.8,
534,1.248,6802.9,31250.3,30823.4,11192.0,9176.8,11731.9,12685.3,6503.5,8339.9,6135.1,6466.6,7211.2,5923.8,5216.1,6432.8,7119.9,5791.1,6724.5,7464.0,0.0,204155.4,
535,0.281,7497.3,10201.5,11502.0,8849.3,8642.9,10433.9,10438.9,6556.1,8892.9,13037.0,8438.6,7932.9,10665.6,7643.2,5577.2,9527.4,13354.8,9981.9,13047.4,0.0,227164.8,
536,0.21,11960.2,12306.0,12348.0,12643.6,15609.0,15706.0,12981.7,13904.5,15202.0,13718.8,11916.3,17050.6,16082.9,9242.3,15714.5,13561.3,14166.9,14904.7,16317.4,0.0,216479.9,
537,0.199,7229.5,6202.1,9962.8,9813.6,8789.5,12388.9,13196.4,10924.8,14291.9,13100.2,12570.7,14024.2,14216.6,11792.1,13240.6,12363.0,12782.9,14118.0,12324.8,0.0,162346.5,
538,0.213,10377.5,10117.4,10426.3,9431.5,11587.8,12631.0,11771.6,12891.2,13002.5,8099.4,11540.9,10811.3,10277.9,11363.2,10152.2,12129.5,9345.1,11973.4,8299.9,0.0,165222.3,
539,3.151,16078.6,42382.8,42227.0,21403.7,22286.0,25395.4,24811.5,16142.6,20806.0,26038.9,13765.8,19367.8,19247.2,14919.9,15121.6,17105.6,22761.8,20880.7,24835.5,0.0,247843.8,
540,0.277,6892.2,6479.7,7183.0,7374.1,7940.2,9075.9,8253.3,5500.5,8879.1,6822.6,6335.7,9122.5,7300.7,6142.7,8603.9,11880.9,6489.1,9812.0,8218.9,0.0,219196.2,
541,0.23,8110.9,7302.7,8434.6,7274.5,9022.4,9602.7,10106.2,8029.0,11194.1,12981.6,8216.0,9300.8,12409.6,8947.1,7950.0,10868.4,14554.6,10733.8,15912.2,0.0,184227.6,
542,0.217,7331.4,6817.7,8414.8,8517.9,7856.5,9728.0,9399.5,8347.3,8695.5,10530.6,8920.2,7374.2,7726.5,9265.6,8503.6,8717.9,6485.2,10741.9,11105.9,0.0,257116.1,
543,0.279,18613.1,17283.7,15496.9,20474.5,17368.4,16972.1,18646.7,21042.5,23153.3,23682.2,17948.4,30375.1,26762.9,16047.1,22199.1,18236.3,27597.2,24340.4,21393.8,0.0,204101.2,
544,0.406,12737.8,15265.1,17665.7,15359.0,13270.9,15727.9,15955.6,14310.4,16697.6,17531.4,15494.0,18517.1,17765.0,14876.8,15254.6,16563.3,15641.1,16967.8,19595.3,0.0,192834.2,
545,0.243,11927.9,13770.0,14840.7,13251.3,17588.5,20927.0,20059.7,14518.9,17083.6,15936.7,15936.0,20850.7,19378.6,13424.5,17031.5,16340.0,20359.6,16757.7,14382.9,0.0,194676.2,
546,0.396,11020.0,14710.5,17023.7,18403.3,13804.1,18353.6,18930.6,13923.4,22911.4,19035.9,13452.6,21919.1,21469.6,10548.3,15328.0,16354.5,20840.5,22068.7,20933.2,0.0,253604.1,
547,0.233,13516.4,13247.6,13027.6,13781.2,14061.3,17329.9,16190.0,11561.4,14923.5,20375.9,8826.2,11090.7,15766.2,7439.9,7446.7,9137.1,16673.0,16797.2,22879.3,0.0,181694.5,
548,0.185,13609.9,12525.3,8785.3,7837.4,15249.1,13745.6,10633.6,8690.7,10350.6,9339.8,9099.7,5247.7,4820.4,8171.3,6453.9,9560.4,6384.2,7014.9,9341.8,0.0,245359.7,
549,0.376,22029.1,22852.3,26257.4,24207.4,23326.8,26169.9,23973.2,16611.3,21991.6,28500.9,13573.8,15493.4,23903.9,16647.4,13648.9,13459.7,24219.8,22249.0,33696.7,0.0,266496.6,
550,0.198,11230.4,12922.4,9431.0,7042.1,13022.9,13174.2,10269.4,11021.7,14480.5,9373.1,8389.1,10789.4,5105.8,6360.6,8701.6,9938.4,10127.7,5387.5,8967.1,0.0,276147.9,
551,0.187,10930.4,12194.0,11073.8,10110.3,14113.4,15643.7,12579.4,11486.5,16446.5,10525.6,8455.1,11809.0,9466.4,9985.8,10707.0,9890.7,8454.8,8832.2,11757.6,0.0,236692.4,
552,0.202,12924.6,14190.7,14319.5,11593.6,15274.6,16846.6,15464.7,14364.8,14679.8,11415.7,13907.6,13178.6,10242.0,12844.0,15267.0,15200.9,9723.9,11407.1,14297.9,0.0,283837.5,
553,0.226,7888.9,8631.2,8469.7,6006.5,8819.0,8902.8,6413.2,8455.5,8335.4,18432.0,8851.2,7247.4,10335.8,10137.3,8516.9,8683.5,9891.3,11115.0,20594.1,0.0,239756.6,
554,0.362,25723.2,25998.4,27219.9,31361.9,23085.5,26854.5,30201.9,27774.0,27175.0,30744.6,35384.6,31275.6,31695.0,32288.4,30486.5,34916.9,35252.5,30842.2,32842.8,0.0,228994.9,
555,0.422,7676.4,7484.1,9566.5,13375.1,11182.3,12470.9,11754.8,12534.2,14262.3,24815.9,14923.9,18486.3,17216.9,12467.8,13352.8,13840.8,20305.9,16139.6,21939.5,0.0,270358.7,
556,0.211,6294.1,8792.7,10964.9,12578.6,8178.9,11597.9,11248.9,10748.4,14639.4,19548.1,9296.0,15944.6,17889.0,9717.0,11754.6,12909.1,18368.0,14318.0,21078.6,0.0,195509.9,
557,0.255,15521.4,16296.6,13129.6,13306.4,15565.0,16353.0,13967.9,14273.7,14051.6,9037.9,15521.2,13674.0,11374.7,12838.4,13400.4,16285.5,11564.6,11711.1,10902.8,0.0,218336.9,
558,0.223,9260.3,10012.3,10606.1,11391.4,10411.7,11698.6,11955.0,9966.3,12910.8,14247.2,11347.3,12860.5,13728.0,9764.9,9830.0,12386.8,12816.6,11943.3,16765.9,0.0,180321.4,
559,0.224,6848.6,14562.8,24699.4,32492.3,15208.4,22051.0,27660.1,12493.8,24800.9,36801.8,9724.2,27248.6,41637.1,7400.6,13863.7,16813.4,29786.9,35342.5,41855.7,0.0,213950.2,
560,0.216,12739.6,12524.5,13988.8,15551.9,13488.9,15578.9,15577.2,13350.3,11464.7,17945.8,12124.6,12261.3,15746.2,16234.7,13182.6,9089.8,11709.4,18611.6,22852.5,0.0,222564.8,
561,0.26,10553.5,12302.5,14209.0,14953.6,14500.3,14608.8,14965.9,18032.1,18816.5,14886.4,16123.4,20767.6,19569.0,13709.1,19217.9,22559.6,16417.3,18447.8,19594.8,0.0,220585.9,
562,0.253,14010.0,16376.1,18925.8,23758.6,18363.1,21140.4,24374.5,20117.0,29732.0,16802.6,15009.5,33483.9,26402.4,15294.5,18981.7,18490.5,21987.7,24348.7,21367.4,0.0,181970.1,
563,0.216,7556.6,10753.2,11389.2,13156.3,11844.4,12666.1,13268.9,11707.0,15554.2,18004.8,8399.6,17989.5,15711.0,6959.6,13241.5,13427.1,23102.8,11543.8,17414.7,0.0,220829.2,
564,0.202,9778.3,8541.7,12384.3,11583.3,7822.1,10167.5,11091.2,7189.8,10267.7,13930.4,10770.0,7833.4,9329.3,12224.8,8920.9,14182.2,14636.5,9767.7,13353.9,0.0,241118.0,
565,0.196,12052.1,10792.7,11977.3,11650.2,13641.1,13298.3,12420.4,14806.7,15956.7,15332.3,14265.0,20490.6,17207.5,14482.8,18429.5,23278.6,18678.8,14795.0,14076.3,0.0,197306.0,
566,3.464,14383.2,33287.0,25785.4,15644.4,22702.5,26736.1,21858.4,14573.2,15389.3,14613.6,10205.6,20996.0,14004.5,12281.3,14724.2,14041.8,15933.2,13818.1,17128.5,0.0,201350.0,
567,0.301,14580.7,19863.8,29845.6,25618.1,23952.6,29732.4,29778.7,19253.1,34781.3,23128.3,11917.1,26692.9,29276.8,12130.3,17261.4,17942.0,24455.6,28570.8,25058.3,0.0,238457.2,
568,0.241,10474.7,8123.6,8751.3,10920.3,9451.1,9489.2,9299.3,8448.0,10627.5,16314.8,8750.5,19837.3,17439.5,8809.0,8333.9,13199.0,27759.2,8955.7,13876.8,0.0,190804.8,
569,0.206,5977.7,6058.4,6644.8,9895.0,6550.8,6544.0,8030.1,9761.4,11184.8,18113.7,12305.7,15474.4,10867.0,9533.1,14323.4,18591.6,10087.8,9546.5,22053.2,0.0,222895.0,
570,0.25,13257.4,15460.1,19766.1,20868.3,20313.1,23850.4,23568.0,20335.5,29896.3,22864.3,14026.2,20436.4,24464.9,17939.1,16337.7,11545.9,23407.6,24832.1,22163.6,0.0,220744.8,
571,0.26,12063.1,18981.8,25268.5,31389.0,15724.1,20197.5,21397.8,16411.5,20226.0,25370.8,18169.2,32539.7,28143.5,11293.4,25982.3,25476.4,24664.3,24935.1,29269.7,0.0,216763.2,
572,0.307,15907.8,19261.3,14979.7,17543.4,20362.4,19565.1,18922.4,23511.4,27531.7,27650.3,22306.5,36040.8,26512.3,22269.2,26014.5,24243.0,27894.2,23487.4,27619.2,0.0,260557.8,
573,0.198,6160.7,7892.3,6949.8,9246.7,6926.7,7436.9,8806.3,5922.4,13551.0,12255.4,7764.8,21910.0,15620.2,6904.4,8213.1,12108.7,20115.4,10548.0,11729.6,0.0,190458.5,
574,0.22,10987.5,11848.7,13855.5,13005.5,12611.2,15337.3,14270.3,14466.3,16121.5,18029.5,16054.2,14113.8,14085.2,16182.4,16001.9,19115.8,19950.5,14604.4,21079.2,0.0,192461.6,
575,0.236,11404.6,9696.8,11016.2,9251.5,9865.3,11980.2,13604.9,9555.6,11283.7,11548.7,11174.2,13600.2,14077.5,13428.4,9690.3,11162.3,13525.7,12931.5,14039.3,0.0,181583.3,
576,0.155,11460.9,11184.3,14736.7,14993.3,11466.6,13939.7,14657.5,11374.5,13758.3,20791.0,9949.1,16577.6,13602.0,11376.4,12625.3,17468.0,19405.4,14181.5,19594.0,0.0,191556.8,
577,0.17,15383.0,15325.0,12387.1,11407.4,14454.6,14013.2,12906.5,14806.9,15733.5,12301.8,10801.5,14169.4,17505.5,13292.9,12350.3,12806.6,10177.0,14779.0,14224.1,0.0,164291.1,
578,0.404,13981.2,12066.0,16717.0,17220.9,15102.4,16684.1,17003.1,19190.0,18490.4,21539.9,18603.5,19589.0,23024.0,18776.2,18372.6,17448.7,27578.3,18306.5,16947.9,0.0,220001.5,
579,0.203,6549.9,7293.7,8509.7,7143.7,5766.5,7768.3,8237.1,5993.4,9408.5,10509.3,7984.2,15614.8,9747.3,6532.1,7621.5,13711.9,9866.7,7788.2,14216.9,0.0,165184.4,
580,0.224,8548.6,7722.9,9484.2,12929.4,9547.6,10416.2,11446.0,12043.0,13871.6,20996.9,13897.3,17044.9,13650.1,9436.3,14471.8,22088.0,15060.3,12111.0,21656.0,0.0,204070.4,
581,0.235,8312.8,8286.7,9044.2,9671.5,8514.0,9303.8,8716.4,14228.3,14007.1,21137.6,17487.6,36739.7,21675.2,14478.4,24488.8,35725.4,24864.5,12024.8,21713.1,0.0,214188.5,
582,0.216,10056.1,15471.1,13909.6,13277.1,16209.2,19259.5,14159.1,16189.4,20229.8,17077.0,8254.0,17169.7,15592.1,12892.0,15575.0,11191.8,12966.2,14537.7,13887.3,0.0,190931.7,
583,0.241,14735.1,12015.9,15566.8,16719.9,16957.3,18310.7,17606.9,15580.4,22882.5,20612.7,14656.7,21332.7,19401.8,18189.2,18673.8,16954.0,20481.6,17438.4,25585.9,0.0,195352.6,
584,33.879,168115.6,64641.6,60750.0,12454.9,23615.0,27444.2,22778.5,9109.1,10872.9,9121.9,7676.9,13422.0,11478.6,8147.9,8139.5,6136.8,8356.9,12075.4,8868.9,0.0,156995.5,
585,7.116,15589.4,16071.2,15500.4,13594.7,13679.3,15091.2,15874.4,15878.2,17389.4,17480.5,18854.2,22721.3,18185.2,13067.7,19153.2,25742.6,20956.4,15781.0,19045.8,0.0,217858.8,
586,0.372,10093.8,7537.8,6198.1,6721.3,6063.6,5449.8,5898.0,7163.3,5519.1,7759.7,4594.5,6574.1,6735.7,4085.2,5609.2,4915.8,6678.6,6341.8,11668.0,0.0,194299.0,
587,0.551,66049.9,20073.3,21290.4,19691.5,22515.9,23800.7,28013.1,27324.4,24271.3,15179.9,16229.6,22588.1,20226.4,19637.1,21761.0,20916.0,19169.5,25276.1,19931.4,0.0,186419.0,
588,0.501,11806.1,11623.7,16038.0,17868.2,15400.9,14287.2,16030.7,20494.9,17524.7,11040.4,9504.7,12618.4,12805.6,7866.2,12938.0,8522.5,11172.9,15315.8,14306.4,0.0,228214.6,
589,0.281,17283.1,13237.8,17033.8,13206.6,12299.9,14770.6,16035.5,11210.0,14309.8,10848.5,10471.3,10541.3,11805.0,17420.5,10515.1,12006.9,10157.6,12899.8,15955.6,0.0,264085.6,
590,0.307,5494.2,5593.0,8023.0,10797.4,7007.1,7635.1,8672.5,8648.8,8610.1,6505.6,5226.0,9519.0,7746.5,5925.6,7141.2,7719.1,5650.1,8530.6,8696.2,0.0,157039.5,
591,0.304,8635.7,7655.2,6432.5,7679.9,8036.6,8378.0,8102.8,8457.1,8841.3,3773.4,3787.7,6962.5,5035.1,7867.0,5553.8,3704.9,3923.9,7109.2,7018.2,0.0,148645.1,
592,0.348,17416.0,20398.4,25771.7,26114.1,20181.6,21991.1,23131.6,18678.7,22796.9,21815.4,21351.2,19059.5,20012.2,19552.3,19726.4,20322.4,23108.6,21577.6,23560.0,0.0,129376.9,
593,0.325,11461.2,15054.0,18482.4,19965.6,12078.9,14955.5,15805.6,11508.7,14504.6,11803.6,6896.2,13089.7,15019.4,11843.8,9058.8,10083.3,11679.4,17125.1,18061.1,0.0,155338.8,
594,0.367,17793.1,18443.8,16663.1,14636.7,20223.1,21085.0,17791.8,17697.6,21512.9,15275.1,17651.0,18763.2,14982.2,15893.8,18592.2,19614.8,13362.2,16513.9,17300.9,0.0,128896.1,
595,0.262,10919.0,12465.5,15466.0,13309.3,12871.8,14953.7,16410.9,14937.5,18448.0,12460.4,14623.7,14894.5,13101.4,12263.1,16596.3,14712.5,11051.8,15397.2,11709.2,0.0,110845.4,
596,0.363,5661.2,8083.9,9108.8,10209.3,6953.3,8024.1,9389.1,8403.1,11904.6,10693.4,7860.1,15563.7,12163.0,6008.7,8935.3,7477.6,11700.2,10219.8,14147.3,0.0,119847.3,
597,0.315,9575.4,11438.2,10310.4,8702.1,17071.7,15145.1,13174.3,17218.8,26079.7,11298.7,11514.5,23380.6,18160.1,9911.6,16440.5,14864.9,13104.8,14944.9,12747.2,0.0,137426.8,
598,0.283,11481.2,8968.7,8606.4,7859.1,10433.4,9060.4,8744.1,10394.1,11617.2,9692.6,9695.3,11682.9,9511.8,11564.5,10081.3,9947.1,11208.8,8812.4,8084.3,0.0,125148.3,
599,0.286,4661.7,7387.1,8565.6,7442.7,6815.0,7523.2,7416.8,5405.5,10150.8,6709.7,4416.2,6998.7,6807.0,3728.9,4607.9,5751.8,7657.8,6682.0,8618.8,0.0,123125.0,
600,0.301,4951.3,8439.0,10365.6,7450.6,7329.0,8446.3,7728.8,6235.9,10669.6,9938.8,6804.8,9457.1,8040.6,5908.0,7814.4,6731.3,7619.8,8451.0,10127.4,0.0,129461.7,
601,0.367,26262.3,33245.0,35994.1,29407.1,32687.5,36200.0,32533.3,26698.5,39481.8,35844.6,19790.6,45742.7,39324.3,20807.1,27456.7,28048.6,44530.3,33390.0,29753.4,0.0,131868.3,
602,0.352,8749.1,7392.2,9776.3,10495.6,12907.4,14112.2,14785.7,11610.8,15327.5,9231.1,9966.3,11776.9,15979.3,10708.7,10574.8,9195.1,10711.5,13573.2,8624.4,0.0,119140.5,
603,0.263,15180.8,21212.7,28605.0,26068.4,21266.6,26265.9,29054.4,21889.7,28551.1,19915.1,18750.9,25094.4,25808.4,17530.3,22355.9,23992.8,25346.6,25651.3,23886.1,0.0,145944.5,
604,0.358,10396.6,15165.2,17499.4,17736.2,16743.1,19156.8,17954.1,14868.8,17727.4,12372.3,14728.3,14759.4,12871.9,13541.3,16328.6,15105.9,9792.1,14474.2,16876.2,0.0,164396.3,
605,0.278,13072.2,12944.3,10762.9,11212.2,16282.5,15882.0,14405.0,17701.4,22800.4,16122.9,14743.2,15166.3,16851.7,15075.4,16640.3,16584.4,14365.4,15549.1,16274.8,0.0,203119.5,
606,0.248,7663.2,8983.6,14020.5,14424.7,10353.6,12244.9,13349.6,10389.8,9392.5,13310.6,9833.1,9710.2,14170.4,9347.7,9540.3,12802.7,11308.8,13028.8,15798.0,0.0,185481.4,
607,0.24,15461.5,22709.0,23827.4,18712.5,30273.1,28732.1,24769.8,30473.8,36898.3,21438.6,23735.1,39495.6,25606.3,15554.1,33739.7,28965.6,28159.3,25384.0,18499.5,0.0,152883.9,
608,0.32,9446.3,12429.2,17504.0,21734.8,14728.3,18491.2,19660.0,13222.6,14038.6,15514.5,15194.3,10609.9,13801.2,11305.9,10523.4,13274.0,10020.5,18356.3,26987.9,0.0,164773.9,
609,0.39,12736.8,18774.0,24042.5,22489.4,18626.1,22160.3,22121.3,15594.7,18566.8,15314.9,19220.2,21750.5,20764.6,14398.3,20999.8,17443.2,15798.3,20621.5,19652.6,0.0,194183.1,
610,0.498,10939.3,16135.7,20151.8,24336.7,13061.8,18555.0,22492.6,17222.3,26112.6,24360.6,23907.2,22644.0,27502.7,20059.5,20687.6,21111.4,21863.1,27925.0,31617.4,0.0,123306.4,
611,0.312,27157.2,32103.7,29170.0,36635.5,27267.7,31713.2,31767.7,29776.8,33757.7,44727.8,31338.5,30896.8,32543.8,27659.5,30216.5,32767.7,35370.6,33870.3,50364.2,0.0,163179.8,
612,0.363,10242.5,14207.9,17298.0,11463.7,12528.3,13775.3,13427.3,8448.8,10060.5,11126.4,7997.7,8901.3,9263.8,8363.4,7627.8,9351.5,10699.7,10344.3,12207.7,0.0,180319.2,
613,0.316,5015.5,6546.6,8102.7,7231.6,5429.4,6708.7,6965.7,3468.1,6297.1,9811.2,7694.8,8749.2,8959.9,5881.7,5557.3,10365.0,12644.2,7679.4,5544.4,0.0,153406.2,
614,0.42,17267.8,19750.2,19139.0,16398.0,18517.3,20920.1,21240.3,21594.0,23791.9,18712.7,15694.0,23873.9,20126.2,16492.3,18740.0,18502.9,18291.9,19404.5,15584.1,0.0,113191.2,
615,0.317,16267.6,18019.6,17527.8,17304.1,19292.9,20435.7,20362.4,19639.2,25651.0,17006.9,12327.2,21863.2,21571.3,12180.5,17653.5,12810.2,16982.8,22398.9,18484.1,0.0,98659.2,
616,0.4,18921.0,16581.2,19506.0,21264.2,19087.6,19354.2,20929.3,19750.7,24753.7,23774.2,15960.4,25011.1,27871.1,16110.0,19512.4,15941.4,23121.9,24744.8,28264.8,0.0,146686.5,
617,0.339,8518.6,9745.1,5295.4,5971.6,8693.8,7193.0,4669.3,10843.2,9886.0,9864.1,10420.8,14488.1,7862.7,8680.5,11715.7,14205.8,12929.5,5158.5,10980.9,0.0,128591.1,
618,0.433,15216.1,17953.8,14993.2,11154.7,15536.7,16010.1,14605.3,15145.4,14440.2,14762.5,14413.9,12410.2,12358.4,16818.3,12995.3,13888.1,12794.2,11358.0,16158.6,0.0,91323.0,
619,0.24,9451.1,13835.3,13755.4,14171.5,12256.8,12825.4,12060.7,13261.9,13266.9,13609.9,15351.2,13571.5,9764.3,12250.6,15429.0,21087.7,11297.5,12821.6,21916.7,0.0,125235.3,
620,0.365,12053.7,19068.2,20802.4,21800.3,17905.2,21383.2,22535.3,12951.1,18301.7,27052.0,8304.3,17085.4,23573.9,7865.0,11868.4,9617.9,22561.5,24493.3,32571.9,0.0,128755.3,
621,0.546,13359.0,14481.2,16911.8,16269.3,13397.8,16649.6,17134.8,14380.5,20065.3,13045.5,11633.5,16929.3,18034.2,11451.8,13273.7,13623.1,13767.6,16400.5,17141.2,0.0,146318.1,
622,0.702,13004.0,12776.6,13649.8,15469.6,13263.8,14331.7,14275.0,14441.4,15483.8,14812.0,16581.8,21306.9,15919.4,13984.7,18653.3,22362.7,18123.2,13574.6,14901.7,0.0,109236.6,
623,0.538,20197.5,21475.2,22113.0,17111.7,18815.9,23043.2,21267.6,20560.5,22746.1,17378.6,17938.0,28536.5,23225.4,19462.2,21837.9,21188.5,33330.7,19568.3,19993.2,0.0,219384.7,
624,0.48,21774.6,23343.9,21523.5,13793.2,19155.0,19156.7,17322.2,15481.6,17239.4,14846.2,15659.5,20546.1,17568.8,15040.6,12514.0,15766.0,60116.1,11024.4,15092.7,0.0,122988.8,
625,0.54,17325.4,16767.0,19139.4,20262.7,20646.9,20440.1,22709.1,27049.0,27363.0,34517.8,19788.5,87243.7,46139.1,17641.8,31245.9,36187.9,62233.4,26072.8,30889.0,0.0,158245.5,
626,0.342,28139.3,7756.5,9100.5,10333.1,8745.6,8583.7,9324.4,12252.6,11271.0,11124.9,8404.7,26956.5,10705.8,6992.5,15434.1,12554.1,14403.7,12275.6,13382.4,0.0,156531.9,
627,0.454,5539.2,12931.8,16665.0,11336.4,7851.5,9855.6,12217.0,13552.4,7326.7,13178.7,14731.2,9676.3,6952.7,13692.5,11983.3,14317.7,9196.8,14439.3,14306.9,0.0,152552.8,
628,0.586,41145.2,36700.2,31502.5,30736.7,44587.2,39506.5,36759.0,50322.4,37553.0,24568.9,38514.6,29947.8,24685.3,35323.3,36139.5,36281.7,24641.5,32486.6,26947.1,0.0,98411.3,
629,0.389,7411.8,11278.3,11719.4,7246.7,16897.3,18241.4,15425.7,23093.3,27049.3,17460.2,27159.9,105820.3,26664.3,9870.2,35454.7,85273.2,80935.4,15646.6,9348.3,0.0,126386.8,
630,0.35,9904.2,10953.9,12739.8,14126.7,12980.9,16932.6,15976.5,12712.8,21727.5,43030.7,20131.5,153967.0,60375.7,6920.8,43278.6,121330.8,184897.2,20153.1,20225.4,0.0,114427.9,
631,0.357,10227.0,16849.0,22590.4,14031.0,14692.8,19972.6,18642.3,10484.5,20250.6,15267.6,10453.5,32931.0,22220.2,7850.9,15881.4,18051.8,16806.3,16174.9,11224.6,0.0,123441.9,
632,0.582,17469.2,26224.7,28318.2,26314.6,26115.2,31827.2,32508.6,20826.0,40089.9,23881.3,13821.4,36741.6,34064.7,14377.0,19909.2,18484.7,26469.2,31622.3,29628.7,0.0,107894.8,
633,0.555,14187.8,16661.5,20206.3,17576.8,17253.7,20119.5,19756.0,14300.6,19448.6,10381.1,9207.0,13172.7,12597.1,11453.1,13193.4,8452.9,10942.6,13592.3,12561.6,0.0,135415.8,
634,0.365,19749.2,24104.9,27981.7,20723.3,24183.6,25769.8,26611.1,26042.8,27901.8,22310.0,16732.6,26854.2,23222.5,19769.5,24057.4,22091.8,23918.0,22323.7,20346.6,0.0,142985.2,
635,0.325,9324.3,11102.7,11333.1,11720.5,14923.2,14019.0,13939.7,16669.9,21292.9,12484.5,11488.0,20895.5,15529.1,12433.3,17806.8,15374.9,15102.7,13259.4,13545.9,0.0,164135.0,
636,0.705,13503.3,18138.4,20597.5,18439.2,15826.4,16953.2,17978.0,13430.1,16166.7,17759.3,16661.8,20707.3,25497.2,13722.5,15383.8,19038.7,22594.1,20020.2,14230.0,0.0,111774.1,
637,0.365,12304.5,13832.8,16738.1,14061.6,12118.7,14359.3,13780.7,13255.4,15614.1,12392.9,9796.5,16199.4,12772.9,9929.9,13884.7,11577.3,11395.4,14727.3,19818.1,0.0,134181.3,
638,0.59,17912.8,17793.8,18583.5,18693.4,17952.4,19126.2,16196.8,15214.3,16819.2,16198.8,15162.3,20501.6,21170.0,16980.0,16358.7,18834.2,17934.4,17047.2,20494.5,0.0,96896.3,
639,0.335,17510.7,17240.5,15672.7,19322.3,17484.4,16765.8,17048.4,19245.9,20776.3,20245.3,18217.2,26248.7,25334.0,16398.0,18701.4,21337.2,27209.9,19017.0,20958.4,0.0,135653.3,
640,0.253,7740.1,8501.9,8087.2,10493.2,10106.0,10608.7,10369.4,12226.1,13309.4,12169.6,6127.5,24710.9,20858.1,6001.7,9758.0,8860.4,21139.9,14393.3,13028.5,0.0,161541.9,
641,0.349,11076.1,10192.3,9248.5,10634.6,11533.6,11917.4,11577.6,10747.4,10570.3,15979.5,12869.6,14245.1,19009.5,10452.2,11587.8,12703.7,16649.2,12984.3,18352.2,0.0,135795.4,
642,0.262,22929.5,23149.3,20636.0,18832.2,23610.5,27191.2,23219.3,22589.6,21738.2,19839.1,21580.6,17703.8,19972.8,24939.5,21082.2,19897.1,19553.2,21067.1,21406.8,0.0,127894.5,
643,0.276,8058.4,7566.1,11043.5,10773.8,6932.7,9318.7,9701.4,7548.0,9986.6,14902.7,9772.7,12966.3,13767.6,7019.5,10132.2,12371.2,11761.0,10321.4,14918.5,0.0,153749.5,
644,0.347,9483.2,9926.0,8205.3,6430.3,11817.3,12178.6,10355.6,15474.8,13788.0,11879.6,15271.2,16944.9,12430.4,12110.4,17614.1,17070.6,14538.7,11340.4,9269.1,0.0,109672.6,
645,0.322,7609.6,14008.4,21089.9,19370.5,13603.7,18727.9,19911.1,10279.4,17896.2,19990.8,6213.8,20598.4,23810.4,5205.4,10723.5,10182.7,22709.0,19285.9,20408.8,0.0,123256.5,
646,0.353,13153.9,13147.1,15287.7,17262.2,15070.6,17948.0,18738.7,16906.1,20518.5,20526.2,19812.8,21983.2,21581.9,16321.5,18357.2,17682.7,20180.9,19623.1,17440.7,0.0,145887.6,
647,0.298,5423.1,8615.7,12625.3,16356.6,8455.3,10442.1,12457.3,11858.2,14839.7,18479.2,16580.6,28454.8,22061.8,6898.0,19860.2,29005.1,22108.9,17324.0,18403.9,0.0,111848.5,
648,0.319,20945.2,15614.7,13514.3,12184.2,17290.1,16092.1,13512.3,17001.3,14820.7,12344.6,13952.8,8188.7,13026.8,22094.9,10076.4,6806.1,11610.2,13785.2,16968.2,0.0,176172.5,
649,0.535,21062.0,25827.0,26775.0,23815.1,28235.9,30219.2,23773.4,30247.2,34148.1,30583.4,17970.1,28449.0,29289.0,21124.9,29214.0,23220.3,25864.7,27415.9,36459.1,0.0,190941.1,
650,0.297,9690.0,16964.5,23203.4,21771.8,14670.7,18938.1,21671.5,12930.0,19509.4,18611.7,8404.9,16518.8,16164.8,9697.7,11341.7,12168.7,14542.4,18333.5,27663.5,0.0,116693.2,
651,0.399,12521.2,10479.2,12057.8,14591.2,10718.8,11761.8,12021.6,18083.9,20118.0,13325.5,16669.2,24182.9,15391.1,13756.2,20040.4,21597.5,14633.9,15501.2,12669.8,0.0,212007.4,
652,0.564,25530.2,30797.0,24754.0,19958.8,28490.5,29298.7,24781.0,25693.9,35966.6,23065.7,25901.7,33834.1,28292.9,25141.8,25319.5,29510.5,29347.7,25498.3,23839.5,0.0,161667.0,
653,0.455,9501.6,16703.4,21209.3,19317.1,11955.6,14998.2,16362.1,11233.7,17166.0,14390.0,14392.8,19440.3,17578.9,9585.4,11981.5,18960.1,16114.1,17914.2,20504.8,0.0,163792.0,
654,0.318,18025.7,19145.9,18812.7,23109.2,21049.6,21643.2,22236.3,16641.2,27984.0,36425.9,13175.2,44795.5,36100.1,12830.3,14965.1,35139.8,54497.1,24902.6,28280.1,0.0,161249.9,
655,0.22,6998.4,9363.6,13836.3,16130.7,7196.6,8184.1,9913.9,6969.7,10841.9,15274.1,4308.5,25118.1,15602.0,4755.3,7643.1,10585.8,18298.3,12720.8,22702.5,0.0,132644.8,
656,0.279,9324.6,9951.1,12399.3,11356.4,10829.5,9442.5,9647.4,10054.1,9612.5,14788.4,10161.1,13832.1,10895.6,9763.7,8333.7,8383.5,12032.3,10689.4,17715.4,0.0,151752.5,
657,0.27,14748.4,16995.3,19061.8,23009.4,16025.3,18432.7,19682.7,11456.9,17813.2,28008.4,9092.7,77853.5,36289.8,8908.2,26098.9,58510.1,105288.9,16750.2,20976.4,0.0,171381.8,
658,0.345,15848.4,22242.6,24241.3,16733.4,24592.7,33874.9,28326.0,12355.1,31811.6,25669.5,23095.2,117380.0,37481.9,9502.5,36211.8,149319.8,141382.7,20508.7,17748.1,0.0,100194.8,
659,0.299,7472.5,7965.0,8507.7,12458.8,7892.5,9641.8,11754.7,13580.2,20894.9,18965.9,31749.9,142223.3,43111.9,8000.2,53215.7,129550.3,64973.9,17979.3,17363.1,0.0,160912.5,
660,0.281,9713.7,12266.3,13772.9,12622.0,16158.6,17985.2,14836.4,14822.4,20425.6,12430.8,16133.3,58967.9,23752.7,13402.0,20021.5,32038.5,29970.1,14752.3,12519.4,0.0,119454.9,
661,0.229,2795.1,4989.2,4412.1,4395.3,6059.6,7398.6,7253.3,8823.8,13238.6,6298.6,8661.5,43025.5,17790.3,9202.9,14343.4,15566.5,12250.8,9445.6,8793.5,0.0,118103.0,
662,0.293,7546.0,8958.9,11056.9,9315.6,9638.8,10556.9,11097.4,9818.1,11526.8,12967.9,11610.0,8888.5,9184.7,10441.2,10316.2,7191.8,8029.1,11448.4,18328.4,0.0,134757.1,
663,0.266,13593.3,22858.5,25726.1,19162.6,16628.5,19454.1,21086.7,16111.7,15329.4,12326.7,13723.0,16165.8,13414.0,16173.8,14060.4,11473.9,14516.0,16305.6,17084.0,0.0,220204.1,
664,0.229,3049.9,3825.2,5367.4,6784.3,2320.7,3214.7,4714.4,2824.6,4231.0,8182.7,5861.7,7247.0,7424.4,4088.0,4205.2,6990.7,7643.3,5025.5,10569.1,0.0,127081.1,
665,0.249,8302.5,12608.4,14695.2,14754.9,12369.9,13456.7,13499.7,10129.0,15089.6,18705.5,11524.4,22913.8,19146.0,9240.1,12449.0,15765.4,26100.2,16899.8,18342.5,0.0,168570.0,
666,0.249,7609.8,11521.7,11028.9,10963.2,8962.6,10979.9,12871.0,10808.1,19938.0,31441.4,15544.9,98513.9,54121.8,9630.3,25124.1,61412.9,84179.8,21600.8,23397.6,0.0,111012.1,
667,0.34,18474.3,20812.1,25439.1,27322.0,20428.9,21229.5,24803.5,29569.5,31518.5,30724.6,24885.3,94928.7,42243.0,24060.7,44666.4,42910.1,42790.7,28377.3,30231.4,0.0,176944.0,
668,0.282,11366.6,22238.3,24420.6,22991.4,21907.5,27169.2,28881.9,16224.9,40040.2,38932.0,14196.2,103750.0,60265.9,8554.0,17805.6,48228.2,185419.6,31831.5,21270.6,0.0,120133.2,
669,0.492,20703.1,27212.3,35648.2,31541.8,25489.8,34330.3,35975.7,22029.5,34550.4,31430.7,17641.9,50778.0,40831.3,20692.6,20363.5,23398.8,57616.9,33259.1,27533.1,0.0,144270.5,
670,0.26,10703.6,10334.7,10548.8,9918.2,10387.8,10048.9,10412.2,14271.3,12157.0,9598.5,13315.7,12408.2,12070.4,19232.7,13772.7,13040.5,11293.5,10183.8,13256.4,0.0,123508.4,
671,0.222,11716.5,14676.9,20649.1,19201.8,16618.3,18232.2,20322.2,16335.6,20148.9,20231.4,20961.2,21279.8,23960.8,16169.0,20836.9,21459.6,21318.9,21801.5,21467.3,0.0,178225.0,
672,0.223,13640.3,21728.1,27856.4,28965.1,20720.6,29555.9,31573.8,15275.0,32262.5,19552.7,23991.6,49198.4,26944.2,10145.6,22888.1,78395.6,30369.1,30831.9,25823.3,0.0,129444.3,
673,0.238,9150.3,12820.3,18667.4,20055.9,12602.4,18901.0,21804.5,10030.2,19865.9,26051.9,6440.4,26157.0,30790.5,8266.4,6318.8,14247.7,23037.0,24414.8,26318.9,0.0,167028.7,
674,0.216,7631.1,10829.1,13877.2,18990.4,10246.2,11483.9,12070.8,9567.9,15596.1,18989.1,9079.4,60206.5,28627.5,8105.8,13735.5,18446.1,29884.1,18499.1,22283.7,0.0,119065.3,
675,0.257,17231.5,21625.7,23406.2,19250.8,21167.3,21493.8,23797.1,22003.2,29080.6,44274.5,47541.7,185196.4,65852.0,17154.6,66921.7,151821.4,130793.1,25517.4,18769.2,0.0,185305.7,
676,27.467,19345.4,20524.8,20107.9,23611.7,21025.5,23107.1,24119.3,16786.4,29606.4,31440.4,22444.8,94164.1,37409.2,12835.6,29742.1,59134.2,54484.7,27835.8,27947.3,0.0,141116.4,
677,0.491,6494.8,9276.6,11654.3,11400.6,9141.0,11643.1,10497.4,9282.7,11538.4,13958.5,6669.7,23836.3,12278.5,9455.6,9427.6,9898.2,16498.1,9350.8,10996.8,0.0,162376.7,
678,0.233,5082.2,6633.9,8700.2,11647.2,6605.0,8631.6,8756.4,8089.9,9228.3,26309.2,9126.5,17221.4,17832.3,6351.3,15519.9,16213.0,21228.0,14574.8,22136.3,0.0,149430.1,
679,0.545,16442.6,22624.3,21998.2,22074.2,24402.5,24315.1,25341.0,30936.9,45069.2,39085.3,20815.5,73140.1,56345.3,20350.1,40672.6,44414.2,95430.4,31837.7,25638.2,0.0,188966.7,
680,0.247,18064.1,21813.7,25771.6,14245.6,21345.8,26367.4,23914.8,18425.8,28087.8,43193.3,35175.7,147140.5,59636.9,12116.4,53066.6,131783.9,158723.8,18985.3,12332.6,0.0,204795.1,
681,0.255,12191.6,14040.6,14564.6,18889.5,17085.4,18615.7,17939.0,24447.4,32090.8,17396.3,24800.0,106672.4,32901.2,14470.8,49495.1,76875.7,38696.1,21418.0,14561.5,0.0,195653.7,
682,0.414,13505.5,20293.0,22946.7,22406.8,21557.8,24815.3,25129.3,20205.6,26079.5,35984.4,21656.4,83054.3,53077.5,12682.8,34775.2,88904.4,120120.8,26197.3,23393.0,0.0,254620.3,
683,0.239,14903.9,18875.7,22939.7,21025.5,20323.7,26609.7,26771.6,20372.4,35518.7,37533.1,27594.5,128586.2,51654.7,11084.0,55095.2,99519.8,76957.9,28267.7,26445.6,0.0,209765.3,
684,0.233,17440.5,20470.3,16812.4,17657.1,20987.1,21460.0,22012.2,21601.3,30163.1,15234.1,20625.6,90066.0,33307.3,13423.2,37319.1,71184.8,29156.3,24454.1,19967.8,0.0,253669.4,
685,0.274,11480.2,16672.6,20064.9,14097.5,17692.6,23672.8,20466.8,14898.6,19825.6,26597.2,37848.3,142603.1,50554.9,10163.0,63968.7,126098.7,124791.8,15447.4,15208.8,0.0,233944.7,
686,0.413,21978.7,29730.6,33995.2,27177.5,28213.7,32255.4,29790.8,13966.8,26173.1,20843.9,18617.3,73056.9,31729.8,13411.8,23838.7,44466.5,81785.9,17220.1,21887.1,0.0,232667.3,
687,0.309,22247.6,22452.8,27850.0,30005.8,22797.2,27250.6,30451.0,21173.8,30449.3,52100.1,29451.6,115055.8,76320.2,22110.3,35146.8,56130.5,140852.2,35241.3,29947.7,0.0,198394.1,
688,0.235,13727.5,20592.6,28690.3,25883.0,26500.8,32492.7,30743.3,20607.6,45245.0,30800.6,10034.7,101672.8,51364.9,9183.5,28172.9,70081.4,104614.1,27604.2,15925.7,0.0,217972.8,
689,0.545,11940.8,14451.2,21029.4,19835.4,18593.1,22260.9,23060.4,17838.0,25838.5,83397.1,22986.1,107793.6,99078.0,14530.4,34724.0,50080.1,242371.6,31146.0,26521.5,0.0,175286.6,
