Time (s),Var Fp1,F7,Fp1,Fp2,F8,F3,Fz,F4,C3,Cz,P8,P7,Pz,P4,T3,P3,O1,O2,C4,T4,A2,ExG 1,notes
1,1.103,6958.0,16924.7,21035.5,24117.0,13411.1,14824.5,17439.3,11417.7,16552.2,17109.4,14200.2,13435.0,15101.9,9064.3,10325.8,14668.6,20275.2,14081.1,14883.1,0.0,5817347.0,
2,1.16,12254.4,13464.8,10954.5,14953.3,14511.9,12929.8,11470.1,11494.9,11652.4,14777.2,5848.0,7449.2,10382.6,5511.7,7851.7,4873.2,5963.3,15632.6,20506.4,0.0,9639015.4,
3,19.175,404356.5,603534.0,667455.1,10765032.2,515691.3,490541.1,375077.2,361187.4,374047.6,714459.3,296420.8,484536.2,557037.6,238951.9,406757.3,570706.3,728848.8,483138.2,626198.4,0.0,138108792908.0,
4,3.498,29812.4,84489.5,733386.5,259456.3,76042.0,50027.5,113219.2,75111.7,62732.7,39554.2,16722.8,27349.4,37222.3,21187.0,24953.9,16996.4,28387.8,102987.7,119541.2,0.0,3638449497.6,
5,4.236,18814.2,28757.0,46484.9,956024.2,28834.7,36024.7,44299.6,167821.5,44099.3,56565.3,43549.2,48884.9,49711.5,23689.6,40359.8,58409.3,57821.2,45977.7,61089.1,0.0,956768233.9,
6,4.016,16643.9,23496.5,23925.2,1377869.7,26192.4,30036.1,37132.2,91591.9,41190.2,23321.8,15578.0,32900.7,39137.9,16966.9,21654.8,23256.9,24984.1,65662.2,84876.3,0.0,828478.8,
7,5.873,29398.9,44240.9,53792.5,87436.1,109508.9,69991.9,108136.7,202296.5,72157.7,18170.9,17247.3,28088.3,34037.5,24433.8,26819.3,22968.1,21848.0,116728.9,33455.7,0.0,35208.7,
8,1.218,23969.1,30970.6,32142.3,6984145.4,28080.5,28327.8,27902.2,765188.2,24129.3,40029.1,17840.2,22590.3,26916.4,24509.5,17981.4,26389.2,32269.3,28633.1,42289.9,0.0,218738508.7,
9,4.82,27058.5,76574.1,37407.4,30231.2,30522.1,32130.6,34209.9,25344.9,39296.1,49164.3,39628.2,34714.8,37965.2,30350.1,32142.9,39548.9,41917.0,37105.3,35649.8,0.0,24222815.9,
10,0.243,7554.6,7511.4,10716.2,11130.0,9336.4,11230.7,11381.0,10453.9,12457.1,15913.2,11424.0,17499.7,15484.8,7891.2,11431.0,15781.2,20412.4,13091.8,9662.6,0.0,199859046.5,
11,0.261,10732.2,12361.5,13642.5,17371.5,11863.6,13410.6,12429.6,10177.6,10672.0,14065.1,12168.9,12390.5,12315.4,10973.9,10775.6,18542.1,15928.6,18581.8,20699.7,0.0,14213.3,
12,0.257,8931.6,9429.1,10172.5,9647.5,9717.2,8632.3,10089.2,15939.2,8315.7,12268.7,9192.0,7466.6,11461.3,5225.6,6548.5,9021.3,11808.5,13516.8,15036.2,0.0,15316.5,
13,0.273,8834.4,12439.1,16195.7,12078.9,9520.0,12276.1,15672.7,11812.1,15498.5,11114.3,15075.4,17335.5,14889.0,10330.8,12569.0,15252.5,14639.1,22012.0,14783.4,0.0,47045143.5,
14,0.281,11734.9,17957.0,21903.2,20551.4,16362.6,18716.5,16960.8,13360.0,17118.7,14726.4,6427.1,11600.0,16234.6,8568.1,9458.4,9788.8,15137.5,14841.8,16666.3,0.0,82498.3,
15,0.292,9896.2,13782.8,13578.6,17249.4,15425.5,16206.0,16162.5,18204.0,21082.7,21155.2,12968.7,23052.8,22543.8,8466.0,20835.4,17416.0,22403.1,32932.1,17020.0,0.0,23100.7,
16,0.318,19215.4,22942.8,24119.7,23292.2,24241.9,22118.8,24317.1,22777.3,24028.9,27775.0,15197.1,24602.0,25467.1,18332.0,18197.2,23214.0,31471.7,31617.8,24531.4,0.0,17208.2,
17,0.161,11994.5,11778.2,11090.5,11900.4,11760.5,10613.7,10105.6,12272.0,12741.7,12972.2,10124.7,16496.1,13692.3,11241.4,12065.5,17469.1,15783.1,10845.5,18152.8,0.0,33535.0,
18,0.531,13584.8,22229.4,38457.1,35943.9,12411.5,15406.8,22567.5,9611.8,17063.0,25394.3,12815.8,23802.4,21156.2,9277.8,11153.5,24520.6,19599.5,18854.9,23742.5,0.0,15796.8,
19,0.394,13453.7,13986.6,14645.0,10390.5,13850.4,15042.8,13252.3,15796.2,15187.8,11550.4,21216.0,20179.8,11888.6,15675.0,17051.8,23773.2,15972.2,13713.2,13559.7,0.0,20812.1,
20,0.194,7139.1,7851.8,9686.2,16418.1,8368.6,10133.0,11076.7,8441.8,14420.7,27666.0,13707.0,19079.8,19005.6,11852.8,10581.0,15015.4,20245.1,16255.9,41216.9,0.0,26879.4,
21,0.461,10382.9,13305.1,14021.5,13099.6,14442.7,13719.5,12050.5,12170.9,12406.9,17757.9,14062.0,14890.2,14274.2,11827.8,14613.4,16052.3,16698.4,12442.6,16870.1,0.0,22421.4,
22,0.223,16948.4,16823.4,20504.5,20766.0,17586.9,20369.8,26192.8,21065.5,18809.4,26337.2,22989.8,18899.8,22245.3,17651.3,19198.1,25313.0,22050.0,25354.7,36527.8,0.0,38782.6,
23,0.406,4504.6,4561.2,6819.7,7303.4,5994.3,6625.2,8347.7,9377.6,9849.0,5425.2,11658.6,11885.4,8940.7,6541.1,13226.5,17931.3,13369.2,10054.3,9633.4,0.0,14380.4,
24,0.371,15981.9,16442.4,14657.7,12365.2,17773.6,19373.1,16305.8,17698.6,19613.0,17193.8,19971.0,16119.9,13520.0,21607.1,20576.1,20506.3,13709.0,14290.9,17669.7,0.0,41145.0,
25,0.202,8865.8,11050.6,13041.1,12141.1,10341.2,12175.4,13569.4,10689.0,14928.6,8144.4,6760.1,10964.1,9916.8,8019.8,8336.0,9235.6,15736.7,11367.2,13783.7,0.0,18437.5,
26,0.21,19914.4,22832.2,24626.8,19832.6,26648.6,28204.3,26202.6,18293.2,21702.5,17626.7,10073.7,22448.4,26357.9,11971.9,14003.7,32484.6,28093.8,25299.2,23012.2,0.0,36615.1,
27,0.189,16269.9,20863.2,19043.4,17965.7,20699.2,22959.1,21140.3,22049.4,20708.8,25145.0,26347.9,22198.4,23315.6,23609.4,24104.6,28234.6,28861.5,19526.1,26692.1,0.0,44042.4,
28,0.238,13933.7,12555.1,13367.8,14710.7,14582.8,16539.1,16115.8,13731.6,20720.0,24588.7,10576.5,25769.8,29280.9,17829.5,14299.8,18321.1,31809.6,19517.7,21642.9,0.0,30533.0,
29,0.172,14767.3,16423.0,18768.1,15314.6,14958.1,18360.4,19383.6,13184.3,15089.8,10980.8,17894.1,17925.4,15537.0,13641.2,17321.3,18301.8,18564.3,16187.4,10875.6,0.0,46253.5,
30,0.234,10196.1,14425.7,18108.6,19388.1,14694.9,17184.7,18686.0,13653.3,19379.2,17747.1,11618.5,17105.3,15335.0,8249.7,16997.2,14575.3,11973.9,19984.1,22967.8,0.0,27859.4,
31,1.588,12277.5,44637.0,40230.1,21821.6,21921.1,25049.4,24317.9,14656.2,21596.4,10625.0,8431.0,10457.0,11676.3,11090.7,11286.9,10189.1,11003.7,13960.4,15946.7,0.0,25424.2,
32,2.582,26129.7,30346.2,25405.5,23595.4,30475.0,34014.1,29029.1,28101.5,31542.8,19955.3,16091.8,30263.2,22906.3,15874.2,25947.5,23723.8,26911.3,24853.3,19976.6,0.0,46638547.6,
33,4.642,7546.7,14531.8,16924.6,16617.6,14356.7,18868.0,17457.9,8727.1,17475.2,14622.4,5981.6,9473.7,14154.9,7878.0,6406.8,8835.9,13384.6,18466.6,18671.5,0.0,15020.3,
34,2.21,12346.9,15741.2,21442.3,18966.4,17360.3,20313.9,19998.3,18662.3,23072.4,19906.1,15297.7,23606.9,19657.7,12852.9,21298.7,28820.2,23799.7,19609.5,18586.9,0.0,37989.2,
35,0.594,15262.2,19125.2,15336.3,13329.7,11870.5,10516.2,12044.6,13592.6,12987.1,19322.4,11828.9,19188.9,16995.8,13772.2,13893.4,22071.5,20304.0,12615.4,18836.6,0.0,63477.6,
36,3.047,26660.1,94438.0,84540.8,36767.3,40406.8,49367.2,49481.2,27020.7,38462.6,39747.5,18006.7,39516.1,41305.2,16181.6,25996.8,32988.1,40864.9,42001.1,30999.4,0.0,11490.3,
37,0.345,24543.5,25662.5,28955.0,27329.0,26264.8,27797.5,29355.7,29778.6,36495.0,26079.9,29727.2,33384.7,29321.2,32017.1,30980.4,33348.1,30400.9,28350.6,27569.4,0.0,268229005.6,
38,3.995,19392.5,33847.8,32662.2,24088.8,25393.8,29676.0,29562.2,20200.1,24082.7,16120.2,16368.4,16394.6,15952.0,14584.9,17999.4,16990.8,15121.9,22460.9,17701.4,0.0,31703.7,
39,0.397,11878.0,23122.1,32995.8,38314.6,18652.3,29549.7,37357.7,13927.1,28848.0,42926.9,10932.4,34803.6,38859.3,12711.0,16083.4,23452.9,36404.7,37622.5,34668.9,0.0,21451.6,
40,0.28,21180.3,22610.8,21803.7,28271.6,21914.7,22751.7,25187.3,22022.2,25845.5,36905.7,18351.8,25672.9,30471.5,20274.2,18688.3,17046.8,38649.9,26285.3,30622.0,0.0,37995.4,
41,0.158,9164.9,9132.7,12541.6,14318.3,9017.8,11276.8,14185.4,10847.6,16050.6,22574.8,21120.2,35712.7,21496.4,7164.7,26151.6,56195.6,33085.2,16715.9,23370.9,0.0,31495.5,
42,0.22,6416.9,10719.6,14833.5,16703.0,14623.1,18936.1,18834.8,11037.4,24335.7,25555.1,10842.5,33512.3,30458.1,5049.4,13895.6,24409.2,36300.8,25474.4,14981.8,0.0,11783.1,
43,0.223,19600.1,28931.1,37441.7,36736.1,27534.5,33651.6,36505.9,25346.2,33336.3,48890.0,27647.8,39405.5,44287.6,24448.7,29539.2,27270.1,38797.6,41761.6,49771.9,0.0,46889.1,
44,0.161,7324.8,6590.7,5612.3,4522.7,6698.4,6926.0,5331.5,7953.0,9400.8,8139.1,13560.4,15722.2,8736.5,10112.3,12465.7,22541.6,15323.2,6419.4,5506.8,0.0,20272.4,
45,0.155,6498.2,7315.1,6164.2,4956.3,9264.1,8975.0,6851.0,7843.8,10788.5,9504.3,8514.5,12638.0,10889.0,7170.8,7013.2,14747.3,10814.7,7798.2,13516.9,0.0,19902.5,
46,0.213,17990.8,24678.0,26237.7,28108.7,25853.0,31478.2,29031.2,22771.9,36746.5,37788.3,16655.9,42374.4,39705.5,17473.9,23292.5,36356.0,42195.1,33150.7,38033.8,0.0,40737.6,
47,0.185,13296.2,18741.4,18508.0,18852.6,19997.5,20675.5,18467.3,20337.2,23634.5,23402.6,11751.9,18523.5,21273.4,13104.3,12924.4,17938.3,21264.1,20823.0,26429.8,0.0,25373.2,
48,0.182,11845.3,17489.0,23728.8,26266.5,18672.4,23245.2,24458.5,20279.8,30139.0,30903.1,15739.2,31055.1,30858.2,12216.7,20265.0,25889.2,29132.4,27704.5,33487.8,0.0,15586.1,
49,0.195,11069.6,14116.6,21612.9,22124.7,13419.6,16405.1,18855.9,10400.9,15818.2,19432.8,13780.8,18914.6,16818.2,16285.7,14289.1,17222.5,20190.3,17781.4,24476.5,0.0,38286.3,
50,0.173,6942.3,8624.6,11357.8,13669.8,9392.9,10842.8,12500.0,7995.1,13362.0,15444.8,7402.3,15507.2,15070.4,5772.8,7629.0,11779.0,22511.9,12681.6,17307.2,0.0,18202.9,
51,0.31,11840.2,19030.9,21931.8,22865.3,19391.1,23934.3,23016.1,12274.9,18067.2,26981.5,9637.7,42463.4,39243.3,6896.0,12512.4,40617.1,67927.2,23815.7,26906.1,0.0,13676.3,
52,0.298,11687.4,10809.4,12821.9,13822.2,13275.8,14386.4,14855.5,15259.2,21103.3,22405.6,16817.8,40350.0,26605.4,17536.4,22464.8,41527.1,40352.6,17563.3,22876.6,0.0,34341.9,
53,0.169,14052.9,14983.3,19503.8,24559.9,13595.2,16638.5,20632.8,12226.0,19553.2,14789.9,11094.7,22466.7,20164.3,12882.9,13550.0,22001.2,18925.1,19028.2,16604.3,0.0,26857.3,
54,0.19,7327.6,9333.5,12306.5,11201.0,11526.8,12574.4,13990.1,12798.3,17496.4,18427.9,13731.1,21274.0,21382.3,11082.1,14619.7,17444.6,21545.4,16966.7,17587.9,0.0,13731.7,
55,0.233,12324.0,19333.6,21609.9,20187.3,13021.8,14805.5,16196.7,12036.6,16055.8,17892.8,13800.2,21525.2,21582.4,14396.9,13524.3,16701.9,22073.2,17992.6,22509.8,0.0,19757.3,
56,0.155,12126.9,9740.8,9786.2,11308.0,12530.2,11306.3,12463.8,13549.2,15255.5,12723.5,13288.8,11937.4,12373.1,13991.1,12468.6,14211.1,9868.4,12788.2,16414.0,0.0,17219.4,
57,0.165,10301.7,9419.3,10350.6,12343.8,11183.9,12316.9,13477.8,12036.3,15051.5,13489.3,16600.0,10166.3,12504.8,14657.6,10939.3,15397.9,12927.3,13958.9,15495.4,0.0,28611.6,
58,0.152,4570.8,5131.6,5131.1,5863.6,5058.4,6366.0,5250.9,4189.8,6736.9,8957.4,4038.7,4330.2,8248.1,2339.3,3345.5,3975.4,4974.0,7958.8,13764.7,0.0,12711.1,
59,0.184,5442.3,6218.5,6899.3,7119.2,6728.6,7159.5,7058.1,5696.8,8084.8,8991.3,6997.6,10460.3,9126.5,5452.8,9877.1,9851.1,9675.9,7096.3,6941.3,0.0,28561.3,
60,0.241,17023.3,21675.2,23789.1,21918.0,25798.3,26115.3,25724.9,23045.1,30149.0,24125.7,19266.2,43401.0,21759.8,14718.9,34443.1,52143.6,29612.2,22470.3,21182.8,0.0,25668.3,
61,0.204,23077.2,27929.6,24625.2,20927.2,29061.4,30939.0,28590.7,25017.7,30965.2,21477.8,27710.4,60421.6,30918.2,19216.3,35196.8,89223.0,33288.0,25163.4,17801.3,0.0,28451.3,
62,0.222,13654.9,18005.5,16862.9,14086.1,16932.8,16370.3,16095.1,14896.4,18218.4,23479.3,16854.0,16968.6,18937.9,13208.7,14017.1,20146.5,21017.0,16855.6,24683.4,0.0,34842.1,
63,0.166,9138.2,10375.6,13075.0,15707.8,11113.2,13358.3,12878.8,9441.4,13549.5,18365.8,11024.4,15122.5,15089.0,11970.3,10986.1,12356.7,13711.8,15266.9,30816.4,0.0,26418.3,
64,0.157,7165.1,9173.1,10786.1,11011.4,8786.2,10146.0,9393.0,13468.7,11993.3,6693.4,17544.1,15718.7,7864.5,13719.0,21598.3,20778.8,11813.4,9347.4,11228.2,0.0,22564.8,
65,0.167,10912.8,12554.3,14704.0,12855.6,15196.0,16638.0,15832.1,19053.8,19772.1,19244.0,13318.5,23597.8,24427.1,11116.8,22725.3,20095.9,26009.9,16555.1,15964.0,0.0,25638.9,
66,0.154,10265.4,11865.7,15162.2,16722.0,12436.7,14340.1,17708.7,10659.7,17802.0,23923.5,8618.5,21647.9,26670.5,7885.1,12062.5,17776.9,27780.0,21816.3,19744.9,0.0,32539.6,
67,0.248,10121.1,13938.2,18645.9,20904.0,12421.0,16338.0,18679.5,13060.8,17580.3,35052.0,26605.5,33887.1,30183.5,17465.3,27725.2,42055.7,33086.6,22763.3,34324.5,0.0,42782.8,
68,0.254,22072.6,24195.0,24975.9,24232.2,26810.7,29156.5,25162.1,25005.5,32203.3,21595.4,23479.5,24414.5,26758.3,18346.1,20788.8,22036.7,25665.5,22915.9,22198.1,0.0,40985.0,
69,0.203,13242.0,16579.5,19200.7,19579.1,17333.5,20128.0,20075.0,14049.1,16060.6,20166.0,16243.6,16938.5,16309.5,14395.1,12431.9,19145.0,25582.9,15652.8,20213.3,0.0,36460.9,
70,0.2,12269.2,15302.4,21078.6,24909.2,17243.4,21590.7,25023.0,16405.0,27536.4,31901.0,21084.2,30789.9,33307.3,26705.5,23021.5,19636.4,28903.4,29843.3,30355.5,0.0,28663.1,
71,0.179,10278.3,13642.4,16030.6,17001.4,16792.0,18808.1,17164.0,13862.6,20749.4,15409.7,5574.6,23525.8,19741.5,10646.0,11371.1,12607.8,17766.8,17664.2,22012.1,0.0,20584.9,
72,29.357,21080.8,99911.7,69053.5,363369.2,22634.4,23375.4,21579.2,19317.3,17399.6,21158.2,16801.7,17597.0,14346.1,17259.4,20777.3,18851.9,17107.4,14394.0,32019.2,0.0,42894.0,
73,1.683,10422.7,20760.9,16894.3,13633.6,13678.1,14098.4,16320.1,20137.8,15472.6,12528.1,7069.9,13109.7,13026.2,6595.4,9401.7,12622.4,11154.2,13450.6,20044.8,0.0,24953.5,
74,0.824,14533.6,17464.2,11958.9,27514.2,15128.3,14812.6,13655.1,12932.6,13781.5,16501.4,9334.7,15200.8,15136.6,9666.3,11478.7,13578.3,16660.0,15049.8,13879.7,0.0,29391.3,
75,0.332,27133.9,34292.0,34364.5,30567.4,38183.2,38315.8,37632.5,36739.2,42052.3,23912.5,16163.2,29898.3,28627.2,15992.0,21830.0,24678.2,30368.0,36484.7,27099.4,0.0,60581.3,
76,0.37,26024.6,20171.9,13663.0,16315.9,28617.8,23597.0,20243.3,36580.6,30473.7,19595.6,14312.4,29341.0,21532.0,23750.1,28042.7,14035.3,23761.3,21222.6,18648.4,0.0,32832.4,
77,0.275,4053.5,7366.7,15484.5,20986.5,7399.8,11039.6,17433.7,7180.3,13998.2,15713.5,10843.7,18822.5,17685.5,6891.7,11723.3,15137.1,15996.2,17222.0,20884.2,0.0,9186.5,
78,0.242,17006.3,24228.7,26114.3,24744.6,24452.9,30121.5,29104.1,26733.6,33931.4,24368.8,16141.6,25783.5,23480.6,14661.7,22137.0,26993.6,31673.9,25433.8,29037.1,0.0,35391.8,
79,0.294,9622.5,11308.5,13274.0,15324.9,9709.6,12977.4,16376.7,8820.6,14721.4,25296.3,10496.1,18508.5,33447.6,9370.6,11655.6,11589.4,33826.8,21813.9,19784.7,0.0,28732.2,
80,0.511,21549.8,21884.6,24520.1,21713.3,19783.7,21047.8,20721.8,19663.0,24698.9,21197.0,28255.5,41152.3,23405.2,24218.0,27496.5,64860.1,33654.8,21350.1,18499.2,0.0,16986.1,
81,0.309,10758.2,12308.7,13671.1,14858.3,15409.4,19580.6,19803.1,15733.2,27739.7,10776.5,18642.7,62424.4,19625.4,11121.9,27196.7,107429.8,13484.1,22164.7,16330.0,0.0,23707.3,
82,0.373,8374.4,12103.6,13545.8,15866.8,10830.9,12169.3,12796.8,12156.8,9600.1,20147.5,7211.9,16239.2,16857.0,7023.4,11931.3,21836.4,11564.7,13581.0,28761.7,0.0,20565.6,
83,0.347,8661.9,9491.8,10322.5,10950.0,10172.9,9836.5,10385.4,11511.2,10936.4,20446.8,12678.2,8558.9,11857.4,12198.6,13181.3,16637.3,20423.4,10100.2,20125.5,0.0,15447.4,
84,0.377,15729.3,17557.6,21026.6,29685.6,17802.5,19980.0,26485.7,21051.0,27462.8,49125.4,43485.4,81005.4,64511.4,23087.6,46294.2,84412.7,78683.3,35598.7,35082.8,0.0,39421.4,
85,0.271,12142.0,14775.5,13181.6,11897.6,12944.2,15467.3,13380.5,15380.8,16506.2,11073.3,17861.9,109249.6,20785.2,8816.5,38401.9,91828.7,49664.6,10966.8,13922.9,0.0,25513.7,
86,0.633,15433.7,15437.4,15023.4,14550.6,13095.3,13014.6,12144.8,9173.4,11076.7,29127.5,9836.8,67222.5,43658.1,9689.1,11596.9,27443.0,80154.1,12346.8,16280.5,0.0,25144.6,
87,0.371,6690.5,9601.3,10128.4,13206.4,11537.4,12909.5,14882.3,14980.4,23090.5,18406.7,13486.8,73813.0,34225.4,7334.9,21504.2,45844.1,61559.6,18354.6,16740.8,0.0,11619.4,
88,0.282,10790.1,17960.6,23170.6,24943.4,17311.1,20446.6,23729.1,11636.7,21387.9,30214.9,15039.3,14718.6,24045.1,9028.9,16374.5,43107.3,17297.7,21183.4,29407.0,0.0,38353.6,
89,0.464,10423.6,11612.8,12929.4,24926.3,13074.1,14135.6,15985.6,9029.1,17333.7,21279.9,25563.4,148395.6,44689.9,9210.8,41300.4,154072.8,94615.6,27543.6,11112.6,0.0,14725.6,
90,0.334,9591.0,11916.7,11996.8,16887.3,14882.1,15807.4,15945.0,16099.6,22473.1,17551.7,18644.1,74878.0,29479.1,7607.8,29603.8,60424.4,40198.2,23717.4,21507.6,0.0,25331.0,
91,0.42,4057.8,11284.0,10279.2,10994.1,9881.5,12490.7,15178.0,14459.0,23358.4,61694.6,27330.0,146353.6,93940.8,6445.5,53046.4,117185.3,169964.3,31549.5,22028.9,0.0,14485.8,
92,0.463,13099.6,25796.7,24718.6,23269.0,19395.2,21970.1,20932.7,13184.2,18676.1,16648.3,17824.2,27962.7,15806.2,12534.8,19939.9,40748.2,10690.8,20128.0,23929.7,0.0,38012.4,
93,0.251,9707.4,17539.0,21726.4,18126.5,15250.1,21828.7,23595.9,13260.3,22207.8,20295.7,7190.0,39445.2,24416.3,6382.5,13187.7,17396.2,22643.7,22465.8,19683.6,0.0,40476.8,
94,0.291,4243.0,8132.5,13472.8,19698.9,7951.8,14203.0,16202.8,6706.7,15309.5,20753.7,8679.9,17714.4,18095.7,7876.6,11557.0,10999.4,17490.1,18561.9,23093.0,0.0,20306.2,
95,0.525,26847.4,24718.4,26301.2,26702.9,34021.4,34054.6,31237.9,30849.3,41003.2,23902.0,17748.3,27387.3,24753.8,21056.2,21889.1,22595.4,23496.9,27090.0,30057.4,0.0,23896.6,
96,0.314,4099.6,6541.2,7995.4,6643.2,5145.6,4961.8,6832.8,9633.4,11071.8,26815.1,21371.3,71896.9,39262.2,8637.7,27839.1,77786.5,60674.9,14603.0,20206.3,0.0,28465.3,
97,0.246,18393.5,25397.3,34287.7,35219.7,30180.0,38100.3,47065.2,35244.4,69284.1,100339.2,45024.0,291752.1,167440.3,21376.0,89475.9,204005.6,269028.3,74612.9,54473.5,0.0,30561.9,
98,0.241,12138.2,18358.4,20290.2,10727.1,19811.4,22394.9,21118.7,26148.6,41173.4,72740.1,59061.6,317173.5,114182.6,19448.4,102651.1,268843.5,307009.2,24149.3,22242.4,0.0,13100.7,
99,0.296,17391.3,19997.9,18025.6,15538.5,13970.4,13771.5,13246.7,12300.5,17979.2,22851.3,16210.2,210897.7,58692.3,15021.7,39139.3,108637.3,82260.2,15753.4,26533.0,0.0,31276.2,
100,0.277,12762.8,17978.8,22184.3,23511.8,19619.0,21383.2,24918.3,20448.9,32366.4,44777.3,36884.6,245069.1,102614.7,12176.6,81915.8,176581.8,153114.0,37434.4,33651.1,0.0,29546.3,
101,0.291,18520.5,23849.3,24341.0,23435.5,27255.4,32698.3,30988.4,14792.2,31406.2,25881.2,17948.8,58147.2,38084.4,13945.1,15963.7,63979.5,39623.4,32414.5,32354.7,0.0,31606.4,
102,0.266,7950.4,12259.3,12774.1,12066.9,11397.8,11429.8,12443.5,12227.4,18004.1,16699.1,27050.2,128749.5,43782.0,5610.9,46469.2,124331.7,118080.2,16427.8,9130.3,0.0,11379.9,
103,0.257,19429.4,24411.9,26856.1,26428.7,24522.3,29715.3,28000.0,19301.0,34118.4,46797.2,25329.7,129810.3,65396.3,13387.9,42284.9,116468.8,166166.0,31303.9,29692.5,0.0,22338.1,
104,0.444,13814.2,13496.5,12222.9,12635.5,15358.8,16574.4,16461.3,20930.7,28418.1,36822.8,33410.1,174193.0,67091.1,18794.5,52672.0,135298.8,208983.8,22709.4,16040.8,0.0,19321.4,
105,0.257,9164.0,16163.6,15410.7,14274.2,16463.0,21461.5,20223.2,18596.7,36479.0,64814.1,39511.9,257547.6,129938.4,10599.4,79295.0,210935.5,217715.2,37174.3,39179.5,0.0,22174.0,
106,0.192,13975.3,14938.3,12336.0,9826.5,18485.2,19181.7,14015.4,17842.5,19787.4,20583.6,25854.4,101291.5,30403.7,19213.1,34424.1,84611.3,127392.0,12557.7,6949.5,0.0,18793.1,
107,0.236,11301.1,17056.3,20707.2,20717.4,18610.9,23214.5,23106.5,15388.1,30090.5,29140.8,14761.5,86908.3,43340.2,8443.1,25823.6,81069.9,52384.9,29077.4,27241.3,0.0,18813.7,
108,0.483,23800.0,31373.1,33423.2,28457.7,31167.3,37089.3,33367.0,27029.1,37657.3,32994.4,55814.4,164077.9,42255.0,15441.6,69981.3,262961.9,205363.1,25446.7,24784.6,0.0,24486.0,
109,0.407,13830.9,16888.4,19333.6,23050.5,13666.1,17728.7,20742.5,9461.7,15185.9,36815.6,19776.2,68565.7,36413.6,9227.1,18678.8,61888.1,51706.3,23834.7,34515.7,0.0,30329.4,
110,0.278,7766.9,12472.5,15079.6,14669.2,11939.4,14251.9,14376.0,13028.4,16502.4,16071.0,19787.3,82112.6,23383.5,10433.4,29464.9,64548.9,58479.1,15471.0,11519.5,0.0,27778.2,
111,0.538,43381.7,43526.8,43288.6,39787.6,51381.6,47538.2,43868.9,41394.4,50905.0,32444.3,25598.9,72037.6,40634.2,45366.0,32610.9,64215.1,57396.4,34627.6,42399.9,0.0,53243.5,
112,0.266,13276.9,20074.5,20213.5,21849.0,17881.1,21562.5,22730.2,13643.8,25076.4,9287.1,11857.6,20951.9,10582.8,10640.5,11561.7,25279.1,10546.6,18343.6,12589.5,0.0,26501.0,
113,0.499,12024.7,10728.5,12420.5,12052.5,10745.3,10003.3,9521.3,14433.4,14291.0,12403.4,18330.8,33924.6,15020.1,18171.5,21517.5,33894.2,18701.9,11468.9,13246.9,0.0,15579.0,
114,0.259,9822.2,14745.9,18717.4,29594.6,14163.4,21205.2,28019.0,16001.7,24663.4,23602.9,11881.1,22297.5,26790.8,8619.2,17364.7,20516.5,24061.1,33261.8,23170.0,0.0,29044.3,
115,0.289,5882.1,4804.6,7013.2,8754.4,5092.3,6018.7,7042.7,5845.8,5781.8,12330.9,9684.9,12072.7,9102.4,9316.1,11596.5,12066.2,15491.3,7883.0,13475.2,0.0,21843.9,
116,0.364,11967.1,16389.4,19129.9,15979.3,14566.4,16679.8,16431.1,13248.9,18248.6,14137.9,8945.1,14806.0,14624.4,11549.9,14070.4,12282.1,12667.1,16345.3,18669.6,0.0,18004.5,
117,0.349,15858.9,22484.2,22942.7,28233.6,23199.3,28583.1,31751.1,11307.6,22847.7,27398.5,24478.3,40272.4,28728.6,9673.0,29223.4,107216.9,26471.4,27583.2,29331.2,0.0,28069.6,
118,0.252,22717.4,27781.4,36156.1,34776.3,32087.0,39377.6,38832.0,21481.7,37637.6,29208.6,24229.4,126876.7,40625.8,16665.0,33906.1,154770.9,153483.7,30418.0,32336.8,0.0,33528.8,
119,0.315,15440.1,21586.3,23275.7,25560.8,26150.4,31520.7,29442.8,25883.7,45463.5,57894.8,42592.3,244161.5,88629.1,13733.1,80021.2,254166.2,265448.5,35608.4,30532.2,0.0,24601.0,
120,0.377,16104.8,26997.9,30739.7,32212.0,29343.9,35531.7,37941.2,18409.7,38802.3,31984.9,28817.0,101737.1,45357.5,14512.0,36866.4,142392.8,155885.4,34757.6,31174.8,0.0,15160.0,
121,0.301,17916.2,20477.7,21135.0,17997.5,19601.4,21605.8,21555.9,17972.7,25805.5,14268.5,25543.6,61236.8,27936.2,17113.7,20975.7,63356.7,36458.7,23005.4,13001.8,0.0,42131.9,
122,0.251,11438.5,17856.5,21098.4,19569.2,16880.3,20034.3,22124.0,15655.1,27836.2,21144.0,21947.0,52422.8,21866.1,10067.5,27726.5,76761.2,31575.9,20469.3,23832.9,0.0,19228.8,
123,0.373,16001.6,24766.3,31677.4,29343.6,26491.0,35283.5,33365.0,25833.9,40674.1,19905.1,39298.6,163272.0,42676.7,17109.4,66669.6,179010.4,86688.8,27329.8,25568.9,0.0,35396.2,
124,0.287,13333.3,17080.3,17819.6,20422.6,14851.5,18469.9,19458.8,12998.7,17937.0,22691.3,47301.6,148029.0,34295.4,12750.1,67081.4,191443.1,89901.1,17145.1,20015.1,0.0,23660.9,
125,0.213,7436.6,7858.1,11500.3,13809.1,10706.0,12463.6,13548.4,21412.5,29193.5,15438.1,45924.1,202721.0,28303.7,9648.2,100640.8,243503.3,44421.9,13243.8,16217.4,0.0,15181.2,
126,0.435,28409.2,37216.2,41917.9,38491.1,33568.7,38366.7,40738.7,31632.6,41211.0,79024.1,27289.1,126566.2,81872.5,25496.1,54904.1,87094.5,186977.8,47312.6,44752.0,0.0,54643.0,
127,0.264,8546.1,15132.6,15872.3,18747.1,13698.3,19206.7,23670.1,9648.8,22413.7,29410.6,7674.4,88892.3,52595.8,6898.7,15801.1,37351.2,52583.2,26136.1,28229.9,0.0,22853.1,
128,0.258,9948.3,13091.6,12519.3,9551.2,11794.1,13404.8,10889.7,6176.1,13843.1,11143.3,6149.5,66813.0,21166.5,2426.4,12579.3,53152.4,35945.9,9071.6,12452.6,0.0,21613.5,
129,0.265,9560.4,12754.4,18576.1,22579.1,15763.6,20394.6,24083.3,11760.6,26015.1,35570.6,15966.6,23960.1,25542.7,9334.6,19779.4,37012.2,28613.6,29179.8,36935.1,0.0,13742.4,
130,0.255,20625.0,26985.0,25543.1,21328.3,25152.8,30604.8,29603.5,15559.4,21287.2,30892.7,25866.4,98630.7,32139.1,14792.6,35915.9,133080.7,138704.1,19554.7,28922.2,0.0,27603.9,
131,0.225,15129.5,17965.7,19954.2,21038.3,20020.3,25259.9,26286.1,20190.3,39364.4,17920.8,21357.6,94759.1,36325.6,11752.8,29674.1,86650.6,48485.4,29885.7,17748.4,0.0,33150.4,
132,0.275,11475.0,13901.6,15853.7,16039.7,13391.9,16862.0,17649.6,6219.8,12250.0,25292.5,35761.7,89767.6,24064.5,6391.1,45861.8,189914.4,89037.7,13733.7,22892.9,0.0,32743.7,
133,0.252,5230.5,9029.7,11942.4,11191.2,6730.7,9997.1,10641.5,7248.2,8057.2,14933.2,6425.7,15969.3,9997.8,5641.2,9033.4,8226.8,9894.1,10566.1,16143.1,0.0,15581.9,
134,0.259,11624.3,18554.1,24867.2,28310.6,13303.5,19172.4,20543.0,7424.6,11395.7,17755.4,15575.7,9040.4,13978.7,14512.7,11294.4,14766.8,14710.5,18579.9,30677.9,0.0,25570.9,
135,0.307,8754.3,13252.9,13782.3,12541.1,13241.9,17146.2,15982.8,11140.5,15909.6,12378.8,7760.8,11045.5,14128.0,10998.5,10680.3,9323.8,12936.0,12508.0,13188.7,0.0,31714.7,
136,0.216,8950.7,14613.3,20580.9,23918.6,11566.8,15303.3,18401.0,9992.0,15755.0,40502.4,10689.1,29412.7,33916.3,9163.6,13506.0,19519.9,29248.5,24657.8,29056.6,0.0,35418.5,
137,0.226,5852.0,7451.4,8931.2,8670.9,7138.1,7510.3,8892.4,15933.1,18323.0,15754.4,15160.9,109889.7,31853.4,7405.7,37767.3,74817.8,52503.4,14307.6,12213.4,0.0,16478.2,
138,0.246,9906.0,11128.3,13293.5,13443.9,13162.0,13277.0,14816.8,13860.2,23776.8,12569.4,23854.4,112036.8,30913.9,12271.8,37447.7,123561.4,38282.3,20068.0,18251.2,0.0,28771.4,
139,0.282,7462.5,12192.6,13563.5,14300.0,10656.1,13415.4,14889.6,8552.4,17119.5,17922.7,18925.3,87012.7,23758.7,8713.5,23659.5,55830.6,62339.3,17789.5,19746.9,0.0,21431.6,
140,0.282,7205.1,13727.9,18602.0,19336.9,11703.5,14775.6,17044.3,10457.8,18762.6,11874.1,10477.8,68839.3,21625.5,7884.4,21426.5,70738.8,34907.2,20066.3,23231.1,0.0,27529.5,
141,0.405,10186.7,16388.2,18137.6,13037.2,17519.0,21623.8,20234.0,22235.2,28962.6,38306.8,32669.6,144357.0,57000.7,25553.0,52167.4,104991.2,137777.3,22136.5,24975.5,0.0,43947.4,
142,0.233,10143.9,15499.2,22415.9,22272.3,14449.7,23692.2,25848.8,14157.5,28920.4,52116.1,20089.5,155306.4,79177.5,10760.7,34199.6,92105.9,200076.0,35318.4,32410.4,0.0,37687.2,
143,0.439,31372.5,34207.4,33834.2,41458.2,35708.7,39943.7,42027.7,36933.4,56393.2,35255.3,31747.1,179959.1,72247.6,23385.4,66707.5,151445.2,137991.6,50784.7,37953.6,0.0,24184.8,
144,0.258,12869.3,18346.1,24257.1,22890.9,19801.9,27254.5,23603.6,12808.3,18596.0,10274.4,25735.7,55784.3,13638.6,9058.3,33165.2,111467.1,54470.8,14629.6,20602.2,0.0,31947.8,
145,0.238,7872.5,11976.2,16137.8,17561.3,11824.4,15367.7,16111.6,11276.4,20075.1,20587.3,16611.1,62515.0,24016.0,8285.6,28334.7,88759.1,20619.5,20455.8,24784.4,0.0,14276.0,
146,0.272,12738.0,14467.3,18821.0,19573.9,16648.5,21383.1,22447.3,13497.4,25358.6,19868.7,13946.3,39633.4,27493.0,11004.5,16441.3,29642.7,41089.8,25443.3,22780.0,0.0,25028.1,
147,0.211,15303.6,13731.8,11561.6,13251.7,14257.4,14854.2,12239.2,13582.6,17236.5,30430.8,22454.5,117916.5,46317.6,13292.6,35404.8,125089.0,141489.8,14901.4,21069.8,0.0,22584.6,
148,0.264,13823.7,14679.3,15110.5,22171.9,15295.3,17970.6,21963.1,18428.4,24723.2,36755.7,20575.4,84779.8,47190.0,17264.0,28155.9,93304.7,80491.3,29194.5,26194.0,0.0,36990.2,
149,0.233,10492.2,8751.5,11089.3,8997.5,11212.1,12033.6,13317.9,12264.1,14978.9,15688.2,16033.8,93389.3,28801.7,10957.2,30410.3,86325.0,61260.7,14146.8,13800.4,0.0,24386.2,
150,0.177,5438.8,10252.7,13263.3,14594.5,10278.9,13164.8,15830.8,8600.3,15907.6,16666.9,8106.7,49562.5,23756.2,5187.4,13981.3,54194.3,28212.1,17254.0,16091.7,0.0,14402.7,
151,0.25,7027.3,6158.1,9051.7,15965.2,7705.8,8637.9,9943.0,10134.6,13788.4,19351.2,8684.8,40252.6,16305.2,8085.7,19116.0,28883.3,25217.7,12750.2,23680.6,0.0,16821.9,
152,0.266,11092.4,12593.5,14565.8,13653.1,12939.9,12416.0,12922.9,13240.9,16957.6,15663.7,12973.3,12710.0,11394.6,15534.0,12293.4,13593.7,11299.7,15131.1,24933.6,0.0,37529.3,
153,0.227,10898.1,13239.3,12986.7,12832.3,15929.0,15858.2,18054.0,18146.9,29824.3,20033.0,6793.5,43881.3,26777.1,10021.2,16893.8,18651.4,22590.5,22758.2,17709.6,0.0,17421.3,
154,0.294,8690.3,11481.0,11359.4,9396.4,12758.0,13059.8,13650.5,13178.0,19571.2,6407.0,15219.9,46730.8,17450.9,9146.4,21191.4,35435.0,17133.1,13341.3,6964.0,0.0,24921.1,
155,0.246,6484.8,8572.6,10683.5,12685.4,8514.4,9545.9,10293.6,5597.1,8861.9,14442.8,6100.1,12211.4,12149.0,7013.5,7561.3,10436.8,14652.9,12120.3,14628.2,0.0,21026.5,red dot
156,0.435,13624.8,14034.1,19032.7,15611.8,14518.6,14681.2,15974.7,14519.2,12504.0,18421.8,15441.5,13339.5,18399.2,11826.0,16005.1,14021.8,15535.6,18453.3,18402.6,0.0,32169.6,
157,0.395,16239.0,16282.4,19542.5,26572.1,19782.7,23988.2,24943.1,18124.2,25002.6,21014.9,17295.7,34985.4,27846.6,19441.3,17954.1,25362.0,30860.9,26993.1,21457.0,0.0,16037.2,
158,0.261,9152.6,12877.3,14252.1,10986.6,11686.9,13567.1,12707.0,9399.5,15833.3,15551.3,11479.1,22569.4,16679.0,6830.9,11609.1,19852.6,20930.7,12189.5,17541.0,0.0,23728.5,
159,0.288,5156.3,8010.9,9664.4,7427.3,6373.2,9172.0,9201.7,6338.4,14839.2,7474.5,10458.4,36282.9,10590.6,7232.8,10387.4,34948.6,17559.9,8357.4,8190.0,0.0,23859.1,
160,0.37,9227.7,11774.4,10715.0,10876.4,10580.3,11303.8,10912.8,8873.5,10790.7,10227.5,4246.5,9980.0,9339.6,7942.9,6527.5,10684.8,16243.3,10084.0,10147.3,0.0,17490.4,
161,0.386,14533.7,16638.0,22979.0,27847.6,16536.6,18009.3,24670.7,18856.9,24295.2,31367.5,24105.9,28363.0,28427.8,19554.8,22338.7,17719.2,34675.8,26196.1,30054.5,0.0,29641.3,
162,0.411,19523.5,24141.6,30376.7,28386.4,20936.8,28688.9,32893.9,14808.7,23654.2,24234.0,37010.1,96865.3,27556.0,13032.7,40485.1,226048.5,99585.4,33653.1,27388.1,0.0,21637.3,
163,0.285,11057.2,11921.5,12689.3,21570.6,13624.9,14142.3,14699.6,11678.9,17941.8,22670.0,17121.0,93150.6,34806.3,13927.2,26969.3,68544.3,51415.3,21731.5,28611.5,0.0,21387.3,
164,0.677,18997.6,21334.7,26929.8,41042.5,23646.8,28274.5,31243.7,23036.1,27550.1,26898.8,23904.0,29786.5,26774.2,26518.0,28058.2,32399.9,21076.6,33557.7,41681.7,0.0,48329.3,
165,0.398,11015.5,14122.1,18414.2,218746.7,23804.2,23219.9,23092.2,23487.5,29272.8,15883.5,11068.7,37234.4,24003.7,13302.3,16756.7,23460.5,20873.3,36854.0,25834.0,0.0,13983.1,
166,0.411,12203.0,14431.6,18827.0,15770.2,22263.0,20321.9,21517.7,20973.8,20288.2,25852.9,8901.9,16648.3,19711.2,12890.8,10150.2,17041.0,21365.7,28361.0,25271.9,0.0,25907.2,
167,0.247,13618.2,15554.6,16827.8,174111.0,20928.2,19233.4,19676.4,25973.0,27087.9,25449.4,22759.5,35125.9,27189.1,12907.1,33758.2,55826.7,32504.3,30434.4,25371.4,0.0,30472.0,
168,0.269,6819.3,8676.1,15284.0,14801.6,9954.7,13116.0,16448.8,10660.3,18761.6,32980.2,38214.6,83445.2,32203.1,10280.0,45455.4,181068.5,100907.1,20812.5,29082.6,0.0,29271.1,
169,0.229,12551.0,12179.8,10171.7,16303.7,10869.5,12261.9,13927.8,13904.2,22633.9,29292.9,16085.0,62954.8,33206.2,14389.1,26604.4,44878.8,33840.4,24230.7,40361.0,0.0,37548.3,
170,0.252,7691.4,7587.2,11676.3,17030.0,7376.5,10258.5,13586.9,7321.5,16487.6,17724.5,11789.4,38387.5,20611.9,10929.9,9433.8,13997.0,23666.5,17848.3,25060.9,0.0,23807.1,
171,0.38,13565.2,17124.0,25401.6,28348.7,19777.0,23091.1,29105.3,23281.5,35769.9,33521.2,31665.5,79566.9,39373.8,21916.7,40402.3,72169.8,50282.9,35929.6,35431.0,0.0,35984.5,
172,0.552,17766.9,27430.6,22996.1,19451.6,29625.0,31830.3,24527.9,28515.2,34313.1,18316.1,18855.5,76135.7,25722.2,15619.7,28048.8,52325.4,39594.6,22145.4,20179.0,0.0,14910.6,
173,0.187,11547.1,11974.3,14831.4,15935.4,14796.6,16119.4,19214.3,14501.2,19027.2,18144.0,18061.5,40513.5,23575.2,16244.6,19082.6,30995.6,21086.1,20888.0,23802.8,0.0,29868.2,
174,0.24,19017.1,20590.2,22935.0,22369.0,23740.3,27363.5,27668.2,22622.3,29399.8,24943.8,18756.2,25177.0,33448.9,19867.5,17708.9,15751.9,22443.5,27603.9,33598.4,0.0,24266.0,
175,0.249,7485.5,8157.1,9733.3,15671.9,8937.5,9580.7,9878.9,11214.7,10589.5,24429.0,12365.2,13581.0,16372.4,10783.8,10254.6,16764.0,13687.2,14356.6,29638.8,0.0,22533.9,
176,0.532,12696.3,8880.6,9319.2,9537.3,9248.5,9210.7,10131.1,11623.2,9430.5,13301.9,15824.3,8888.8,12336.3,17059.3,11149.8,10254.7,6167.8,13184.5,21224.5,0.0,36923.2,
177,0.243,12993.8,12153.7,15663.4,14926.4,12027.9,13785.5,15077.4,11686.1,13322.5,13868.7,9847.1,10258.3,18476.4,9280.0,7778.3,8356.3,14943.6,14431.7,17046.0,0.0,42218.2,
178,0.199,8782.5,11973.1,14568.4,15189.9,12157.1,15826.4,17570.0,10896.9,16231.8,20200.5,7773.1,21475.6,20671.5,10239.7,10978.5,22619.0,24453.2,18323.6,16084.3,0.0,27134.3,
179,104.277,189168.7,135566.9,100719.1,820096.9,35723.6,37442.3,49780.8,39600.3,24245.7,26385.0,16925.5,28454.4,29793.4,34271.1,17653.1,29562.1,33061.1,30216.0,36297.8,0.0,22350.3,FRUITION-CALC
180,63.425,21764.3,53264.8,52738.4,40734.8,21952.7,25925.7,27520.3,14229.0,17029.1,18887.0,10075.3,14010.9,17613.6,9945.2,10156.2,14492.4,15540.7,20785.2,24612.9,0.0,39006.2,
181,0.471,33895.1,32331.9,26808.4,22783.3,31857.5,27672.1,21506.8,29427.2,26125.1,33859.1,21859.4,23634.5,24906.2,28939.7,23042.8,19875.5,29895.5,24033.1,36173.2,0.0,18943.2,
182,0.642,28213.8,34890.5,48179.2,49907.2,37275.9,49038.1,51550.7,31485.1,48020.8,41777.5,37348.2,105046.7,56569.7,27344.3,49348.6,112874.3,145427.3,46430.2,43827.1,0.0,26365.8,
183,0.575,30360.7,30746.4,32469.8,31107.6,37201.9,46579.7,43779.9,31682.1,47730.6,50551.4,24161.8,196063.6,77611.7,25730.7,43517.4,148600.0,278325.2,38040.3,30019.6,0.0,15944.5,
184,0.281,14122.3,15752.6,19801.4,22001.8,14195.1,15929.1,20759.2,21891.1,25672.7,29451.3,41139.3,153650.0,49372.9,19547.8,51455.4,139628.5,110945.9,24896.9,29530.2,0.0,12554.2,
185,0.263,31537.0,51152.4,56595.8,49238.7,52420.3,68798.0,65537.0,29593.3,72502.7,45437.7,40204.4,200694.2,74667.6,10733.2,45308.4,184040.1,250780.7,51898.7,29757.0,0.0,22066.8,
186,0.216,16763.4,27294.7,27905.5,19261.9,28892.5,37982.8,34782.5,29658.2,54124.3,51374.7,41123.6,222635.6,93676.9,14455.5,78776.2,198238.1,204227.4,40116.7,23931.4,0.0,26985.1,fruition (suffering / no-self)
187,0.353,6251.7,9838.7,14869.9,13594.8,9068.2,15258.1,15192.2,9570.3,17238.0,28834.6,28941.9,146201.0,50762.8,5782.0,52437.1,168877.3,174366.8,17865.8,13816.0,0.0,14310.0,
188,0.54,14194.7,20577.2,25799.1,36922.7,22002.2,26065.3,25263.2,23319.3,31213.1,40289.5,38722.3,201357.1,75719.7,16537.8,72366.5,144810.9,185600.7,26499.1,24957.7,0.0,24949.5,
189,0.197,8412.4,8472.6,11281.6,12186.4,9193.9,9645.2,13346.5,14535.1,24556.7,26663.1,14110.8,136517.1,53400.9,14295.6,30518.4,41449.6,115468.5,22423.2,23022.6,0.0,25726.6,
190,0.489,13781.2,14236.1,13246.6,16663.3,14475.4,16500.0,16567.6,18474.8,22501.1,27545.4,29203.5,66043.5,33398.4,21175.4,32320.3,70025.3,58162.1,18653.8,21463.0,0.0,27194.6,
191,0.349,17906.8,21880.0,25704.0,28101.7,21931.1,23764.5,25483.0,18386.4,24357.2,43314.3,23415.9,115744.8,51180.6,13658.0,40556.1,142977.8,148065.4,28703.0,28539.0,0.0,34350.3,
192,0.334,18472.7,23912.3,27038.3,26639.0,25545.0,30136.1,31629.2,24967.6,48434.0,40346.6,39429.6,270758.3,90192.9,12781.6,77706.4,225472.3,226727.1,34532.6,25925.3,0.0,24629.9,
193,0.285,14530.5,17331.8,16869.4,15556.7,18381.1,18166.8,17675.3,16352.5,21779.3,28106.6,33237.0,185049.0,60913.1,14650.8,51888.2,115556.0,130744.4,19721.4,18758.6,0.0,33851.8,
194,0.235,16247.7,18431.9,21563.9,20505.6,21327.4,22182.3,28429.0,32111.8,52425.1,58162.3,44778.5,242071.3,118792.7,14598.9,94527.4,242904.9,225018.4,50710.0,32249.8,0.0,28708.3,
195,0.306,12485.2,14824.8,13365.8,13642.9,17529.0,15066.1,13991.3,25173.7,27599.8,26827.4,38906.9,156169.5,50054.0,11338.0,72483.6,192049.8,114085.9,25870.9,9753.2,0.0,39076.5,
196,0.299,16057.8,19651.3,21426.5,27842.9,20989.3,26508.6,26713.6,23410.9,29452.5,43361.4,44146.7,131283.1,53264.5,15364.9,50420.1,209855.7,127498.7,35695.3,34524.8,0.0,23057.1,
197,0.215,21739.2,23654.0,18532.8,14455.4,23255.4,23611.1,21683.2,19491.7,26997.3,46716.6,42023.9,111077.5,42566.4,13833.5,45360.9,186382.1,212381.9,20030.6,22882.0,0.0,34195.9,
198,0.223,8858.1,18453.6,27270.1,23442.3,17054.1,27483.4,25487.9,12807.6,31541.5,29585.6,30568.0,124172.0,40490.8,13394.4,38747.0,138462.2,187724.2,22214.1,24119.4,0.0,25261.4,
199,0.613,37413.9,40251.6,44082.4,37548.7,54166.7,58487.1,56947.8,56565.2,97097.9,79514.7,48507.3,193873.5,117179.8,39342.7,65798.8,177414.1,233210.8,74296.4,50614.5,0.0,44665.6,
200,0.408,24340.3,32346.4,38590.9,37432.1,35279.0,42164.7,44796.3,35549.6,58288.8,34388.1,36511.9,139531.3,58922.7,25709.6,62303.2,103272.9,84837.1,45751.8,41300.6,0.0,40794.9,
201,0.33,7373.4,12457.4,12791.7,12921.3,12061.6,13401.8,12760.4,9188.0,15232.1,15870.0,10204.5,28943.6,18449.8,5636.9,10912.7,19073.0,38788.7,13968.9,17267.8,0.0,17869.8,
202,0.274,8920.5,16967.1,19923.3,18634.9,15490.5,19627.9,20848.5,10200.3,22295.5,31411.4,8725.3,49877.6,40621.9,4527.3,11700.8,49641.5,69117.6,27777.3,23275.2,0.0,22157.2,
203,0.207,11947.2,13090.9,17583.2,18018.3,15580.6,18298.9,21605.0,17839.8,33340.1,46493.9,20391.1,101037.9,57994.0,13005.1,31441.6,67551.2,82852.7,28184.2,32696.9,0.0,22708.6,
204,0.181,8337.9,8940.1,9853.5,8805.7,9913.0,12283.3,11391.8,15563.3,22300.9,28629.2,60812.6,186272.6,55452.5,14914.0,85226.0,266484.9,181151.7,17168.9,10030.0,0.0,24321.0,
205,0.217,11605.8,17551.6,21487.8,18915.4,17218.4,21916.8,24312.9,16929.9,29936.4,29855.1,33121.8,162901.3,48435.0,12557.6,57982.8,148314.4,116268.5,22180.6,23568.4,0.0,31110.7,
206,0.232,20429.4,27536.9,25370.8,28525.5,29648.4,30729.6,30713.9,33148.3,49486.7,39429.1,61522.3,216475.3,68446.9,24020.9,97170.6,212701.2,180082.0,40636.0,38533.0,0.0,38689.8,
207,0.219,13139.6,13643.6,16013.9,17549.6,15383.1,17624.4,19366.2,20234.0,32824.7,35803.3,37208.7,186260.3,77175.1,17243.7,58674.3,166674.3,147996.1,31922.5,21654.6,0.0,33986.7,
208,0.219,23931.0,24284.3,21378.6,19147.9,28515.7,28808.3,27965.0,29902.9,39197.8,45966.1,22600.8,207818.2,84635.1,17247.0,50967.7,124869.1,204304.3,38026.2,31504.8,0.0,36742.8,
209,0.245,8840.5,9616.6,15239.1,16510.1,9732.4,12722.0,17324.7,11464.6,20465.9,36077.0,18174.5,119610.2,73945.5,11659.7,22676.1,40293.0,131299.6,24300.1,20271.4,0.0,24545.0,
210,0.235,12132.6,15652.2,15270.0,13641.5,20468.9,21136.3,18357.4,24445.5,26003.3,15025.1,38770.1,66360.6,20150.8,14998.6,58607.4,116623.2,20280.2,17863.4,10458.2,0.0,22920.7,
211,0.216,18731.3,25368.8,28599.8,28124.8,23855.9,29079.6,30277.5,18255.5,39178.1,26409.6,30004.2,142050.5,43304.1,10242.6,47605.2,106757.3,112466.4,28224.7,25227.4,0.0,49430.6,
212,0.241,13640.3,17990.7,21336.6,23295.2,19958.9,23954.3,23916.0,19777.1,32146.1,20836.5,12196.2,80434.9,36962.4,10938.0,24514.1,31122.0,35964.5,25406.9,23560.6,0.0,26977.1,
213,0.233,6264.3,9050.5,9730.6,9730.5,9261.6,12084.7,12473.3,8862.1,17662.2,22655.9,12732.6,104812.9,48802.1,6466.7,13799.7,43664.9,102823.2,17440.8,15656.1,0.0,29531.0,
214,0.246,8752.7,10360.9,13116.6,13809.9,9399.7,11974.7,16029.3,7672.1,21935.4,68622.4,24656.2,145274.5,91388.8,8098.2,37902.0,144554.4,265713.9,27956.9,24212.0,0.0,16106.4,
215,0.47,19012.0,25197.6,28782.5,36154.2,24842.5,30880.5,30323.7,19295.5,28904.8,39585.1,23763.6,80009.6,36587.1,9759.9,29998.1,110882.6,155613.3,23057.0,31107.5,0.0,15284.8,
216,0.237,7445.1,8051.3,10461.2,15233.1,8554.3,11454.5,14060.7,10282.3,17649.1,18991.4,16295.2,58717.0,28527.4,9777.4,30486.1,58115.8,38602.4,20934.1,16937.2,0.0,25123.1,
217,0.278,12626.7,17620.1,27550.2,28949.7,21422.3,27078.5,30192.3,25243.2,34990.2,41773.4,29980.4,97855.7,50787.5,13032.3,48160.6,101433.6,69068.0,36625.4,43507.3,0.0,21269.9,
218,0.206,13870.2,13236.7,13558.1,11080.4,13286.0,16571.5,13771.4,15340.4,15291.5,25532.3,18364.8,38942.5,17630.7,14722.7,30719.6,88738.7,32604.4,15003.8,18354.0,0.0,33083.0,
219,0.198,7190.6,11272.6,16798.1,21628.9,12309.6,16088.5,19351.4,13644.2,19958.2,20886.3,23597.8,101481.8,29952.5,9270.4,39068.6,145185.6,108108.7,20445.1,27191.8,0.0,27399.2,
220,0.215,15853.4,20620.2,23169.4,15797.3,26472.4,32493.2,29514.4,23438.5,41663.8,33547.7,22507.2,133677.0,49861.2,14830.7,41747.1,114114.0,101476.7,31850.1,31225.0,0.0,24758.1,
221,0.227,15771.5,15681.6,19781.5,17661.4,20843.8,21742.3,21702.4,14475.7,24981.8,40439.0,21878.6,127293.9,56083.0,12065.6,32748.1,169519.6,219136.1,21211.1,22227.1,0.0,19211.2,
222,0.397,19753.3,27735.2,34230.1,31237.1,25410.5,33980.0,33842.8,21066.6,31776.2,20113.6,18776.9,91224.8,36577.0,12008.4,29498.1,85015.4,71176.5,29074.8,24760.7,0.0,22586.0,
223,0.367,11044.2,19650.3,15905.8,11268.9,12894.3,14062.2,14208.2,10316.5,14914.9,37929.9,37950.5,185026.6,41615.9,7801.7,66295.2,257339.2,228979.6,11693.9,7692.2,0.0,12466.7,
224,28.675,12745.7,28359.8,24636.5,20486.5,16193.5,14319.9,14604.0,10012.8,14404.2,30065.5,29507.9,77885.8,35703.2,7919.7,29379.0,191715.8,101506.3,22927.7,16099.0,0.0,34285.9,
225,0.523,9907.0,20624.3,15613.0,16276.4,14028.0,14015.2,16900.2,14359.0,15529.7,17633.7,16492.2,22107.4,16854.1,11162.8,16425.6,40224.0,25987.8,20515.2,14475.6,0.0,28206.2,
226,0.261,14535.9,20205.9,15026.6,12081.8,17119.2,18828.9,16359.6,14276.2,17467.0,12902.4,12098.3,21284.9,17664.1,9917.5,12637.7,18607.2,18467.5,16299.9,19476.7,0.0,33924.1,
227,0.242,26141.8,37276.6,27304.7,20840.1,33710.8,34261.8,29578.8,21810.3,27002.9,31203.7,12646.2,41620.1,19346.7,20510.7,13549.5,81550.5,104136.6,19122.9,25785.7,0.0,33179.8,
228,0.337,21676.0,24883.2,26259.8,29782.2,24067.2,23915.5,25763.0,21575.8,29096.4,33766.3,32257.2,122442.6,50332.5,19434.5,45917.5,109731.4,187896.5,25642.6,28533.1,0.0,55629.2,
229,0.348,11463.7,16997.2,14104.8,14428.3,10886.8,13150.4,14135.7,13934.2,20683.5,26313.2,39929.9,148725.6,47863.6,13675.7,60750.6,178569.0,107499.0,21531.8,15552.0,0.0,24893.9,
230,0.293,9122.8,12961.8,14587.1,17625.4,16244.8,16845.0,20197.5,24428.1,29359.3,30590.2,26339.0,68316.8,46166.7,15203.7,39682.6,63896.3,52620.1,27914.1,27153.2,0.0,36227.1,
231,0.342,27865.3,29641.2,33412.3,32382.6,34107.8,37390.5,39171.0,36020.5,43758.3,47959.5,25056.9,67292.5,49904.1,25091.4,50262.1,47766.6,66516.8,37718.0,45176.5,0.0,17025.1,
232,0.265,10616.2,14571.8,11094.0,10459.3,12178.5,15346.3,13485.9,5228.6,10003.6,18983.8,7995.6,15644.8,18631.5,4871.8,6986.8,22652.7,20981.6,15650.6,21259.7,0.0,14423.8,
233,0.352,8686.8,15191.3,19638.3,20805.2,22768.1,28264.8,25395.6,28587.4,41700.6,26692.3,40842.6,85253.1,35224.2,21017.1,59362.6,140467.8,48812.6,26997.4,19728.3,0.0,14016.3,
234,0.211,19113.2,26628.7,28062.4,24256.8,25412.8,31271.5,29049.0,22262.9,29899.3,27238.6,28101.3,86320.3,31351.8,15496.4,39113.8,92250.5,109253.3,20848.6,13919.1,0.0,37962.1,
235,0.326,34915.9,39765.9,41664.3,42036.3,37475.0,45639.8,47291.7,28721.7,42228.1,39377.9,36346.8,179863.0,70519.4,26700.9,71879.6,163666.3,151812.7,39441.3,37798.4,0.0,70201.3,
236,0.209,13968.2,23166.2,25123.2,21643.8,19041.7,23924.0,24519.4,14054.1,17982.4,58802.7,56721.7,313773.3,113462.8,11738.7,101463.1,274126.0,348380.8,23470.6,19756.7,0.0,28325.5,
237,0.226,19477.0,23898.7,25814.8,17517.1,22703.9,30399.8,27204.4,17892.6,25479.0,50755.6,21929.3,139373.9,53858.2,14540.2,44272.2,116410.4,197082.6,16356.3,23071.1,0.0,54213.7,
238,0.162,7354.0,7099.2,6965.7,7263.4,7340.2,6121.0,5948.2,8054.4,9869.4,29431.2,30098.2,185297.2,57045.7,10032.7,61838.3,182815.3,189133.6,9031.9,16155.7,0.0,24623.0,
239,0.275,26867.3,23359.8,27964.3,25522.9,29887.5,29529.4,29029.3,31465.5,33586.5,30215.1,40720.3,113594.2,41688.5,31372.5,59775.8,126174.2,81524.6,28874.1,27725.9,0.0,29553.8,
240,0.219,26919.1,38988.1,40814.1,35388.4,38149.7,40994.2,44549.6,33637.0,49470.1,34420.6,28309.4,127883.4,51891.8,20952.2,50377.6,93943.0,106738.6,42744.6,31672.2,0.0,37967.0,
241,0.211,11599.7,18645.5,21360.7,22118.7,13652.8,17558.2,16135.0,9231.9,18863.9,27625.3,11269.4,72062.5,37826.4,4649.1,27302.3,65332.6,44678.8,21022.1,35593.2,0.0,20256.3,
242,0.239,15808.0,16633.1,11767.6,13325.3,15833.4,14422.0,11969.0,18870.3,18754.0,49687.9,32299.7,111160.0,71205.9,14756.7,46440.6,84300.1,115715.6,24088.3,36614.4,0.0,26650.2,
243,0.244,28014.2,37487.4,34867.4,27029.8,35953.9,40259.9,36200.2,23514.3,32940.2,56057.1,30529.0,213551.4,95754.8,19706.8,59487.6,165664.0,248090.2,25803.9,26143.2,0.0,38398.1,
244,0.197,20267.9,24255.5,28188.6,26678.3,27494.4,29978.4,28008.0,28725.2,32932.0,38211.1,32333.9,183701.4,73004.7,15907.7,71045.7,165612.3,145529.7,28626.5,39411.1,0.0,25382.2,
245,0.187,11695.1,14146.5,11604.6,13163.9,14586.8,17435.4,15805.9,14158.1,24230.4,27258.1,27777.9,96637.5,35472.9,13032.1,40104.9,84665.3,102876.3,15863.1,15755.9,0.0,38824.2,
246,0.206,16427.2,18545.5,21656.8,21178.4,23472.8,23567.9,24148.1,28901.9,41713.8,31787.4,45053.7,243685.8,74485.5,20106.1,83538.6,217714.7,164536.8,28443.3,22236.5,0.0,35597.3,
247,0.183,10538.6,12280.8,14145.5,15185.9,15791.9,18265.0,21574.1,23984.8,37256.0,24169.5,45975.4,124326.0,43070.3,21117.4,60394.5,112919.3,73574.1,26338.9,20479.0,0.0,39877.3,
248,0.294,24343.9,18224.4,15585.4,11152.2,22919.8,21612.2,19839.3,24021.4,33206.0,14937.3,9588.0,84324.9,18708.5,14591.9,27494.3,52978.7,31535.8,16077.0,17266.3,0.0,21861.1,
249,0.19,8151.5,15318.3,19002.7,15216.8,18214.4,21390.4,21790.1,10445.9,21685.9,20228.2,17593.1,175691.6,53323.2,8271.3,40367.5,105580.2,100079.4,18334.0,13612.4,0.0,14843.1,
250,0.229,17392.5,26145.5,31186.6,28183.5,24938.6,30946.4,29877.9,16409.7,21006.2,21301.4,12451.1,86728.8,36778.1,11369.0,24988.4,97156.0,110693.1,20800.2,17527.4,0.0,35864.5,
251,0.212,13777.3,17162.1,19703.1,22527.0,19501.8,21795.5,22065.7,15261.6,19984.6,26576.0,22312.4,76816.8,39980.1,9889.6,28527.5,120851.2,107044.1,23217.8,22144.8,0.0,41794.9,
252,0.205,11329.1,10077.9,8759.2,10830.5,11374.2,11400.7,9778.5,13279.6,17259.8,26050.8,13326.0,35076.9,16132.6,9434.5,24892.3,48308.0,24433.1,11274.4,28285.5,0.0,22782.9,
253,0.583,15122.3,18366.4,25761.9,31965.5,18007.2,21302.9,24941.2,21499.4,27233.7,28393.8,21085.2,73684.7,30620.4,21879.5,30891.7,72064.8,45910.5,26291.4,37472.4,0.0,29437.0,
254,0.237,12718.6,19211.3,24517.9,27772.3,21167.2,27416.5,26568.8,19278.0,32155.0,42506.7,38435.8,125150.1,52768.9,14098.6,49522.5,118951.9,127334.2,26957.7,33286.9,0.0,22660.8,
255,0.27,19488.1,34887.5,36813.6,34655.0,46514.3,50601.3,50434.3,32556.6,62432.7,60267.7,22527.5,130089.9,69027.1,14611.6,42196.7,126751.2,150310.1,40838.2,50839.3,0.0,25454.7,
256,0.58,18500.5,21257.4,26500.3,25775.3,22087.6,26663.2,28030.2,17377.0,24463.1,31283.4,49276.7,117979.7,41690.0,20293.8,57931.5,201021.5,183646.3,20167.5,19889.2,0.0,25614.6,
257,0.316,15183.0,23840.6,32755.4,27382.9,21331.1,25715.6,26796.9,14076.9,21893.9,54582.2,42562.1,114654.8,53398.9,20128.4,46579.4,200351.1,208280.0,22251.7,26835.1,0.0,38472.9,
258,0.285,26714.1,37700.7,47757.3,41731.1,39654.8,43985.3,43241.8,31557.9,40271.2,37274.1,40601.4,155816.5,69391.1,24550.6,71718.3,153381.3,143407.0,36177.8,33513.4,0.0,45113.8,
259,0.386,20168.1,23381.6,28606.9,28300.5,28414.4,31499.0,30438.1,28270.6,37326.4,16326.5,37724.2,165918.1,56967.9,18774.2,70417.0,190467.1,140202.9,24280.7,15720.3,0.0,57952.3,
260,0.586,10930.7,19342.6,20072.6,17179.3,15880.8,23081.3,20041.1,12177.5,15530.1,21794.9,28288.9,112351.9,31153.4,11979.5,39513.3,127795.9,100606.2,16254.3,23183.1,0.0,31058.0,
261,0.739,16371.3,26549.7,25250.8,26767.3,27828.5,31989.7,31239.3,26515.3,44083.3,32521.4,23285.9,153402.7,66973.5,14811.4,56141.0,131772.8,148375.5,31332.3,26935.5,0.0,34043.1,
262,0.333,16445.3,16483.5,17382.5,15785.1,15449.0,15768.2,16572.8,25971.3,21185.4,28456.4,50293.9,105668.1,26963.7,26812.9,69784.2,164957.6,105503.4,12919.8,17056.8,0.0,35543.8,
263,0.626,14637.5,19233.8,15655.4,13279.9,21677.7,25002.9,17762.9,21673.6,31029.4,65509.8,25920.9,85816.3,63563.0,10545.0,39330.7,83888.1,160027.0,24644.9,30381.3,0.0,14467.7,
264,0.263,20268.9,32229.6,41662.5,47725.5,35917.8,47269.5,52565.7,30408.4,66761.3,68281.9,19884.7,142947.5,102064.9,15188.3,45329.0,89596.0,128731.0,62274.5,72680.2,0.0,18558.0,
265,0.452,15155.8,25946.9,43760.3,47855.6,30529.8,42916.8,50250.3,32161.5,59915.3,76037.4,33968.0,195978.8,135901.9,20671.5,62613.3,115848.2,217412.2,63489.9,50386.1,0.0,32658.2,
266,0.239,22716.1,29344.5,33205.1,38455.2,33171.7,41396.4,40712.8,26732.4,52500.3,29699.2,29827.6,140637.6,45231.4,17606.8,52610.9,120947.7,123760.6,35720.7,32912.5,0.0,38818.3,
267,0.192,14465.0,22659.9,22693.5,21914.4,25685.7,32405.2,31216.7,21578.6,50512.3,31681.1,20930.9,145043.2,69804.8,8824.2,46884.5,124036.6,167774.1,40069.5,18635.7,0.0,21960.8,
268,0.211,10007.0,22411.9,34897.8,39242.1,20924.9,29663.6,36913.3,25394.8,45148.1,32170.7,42708.3,99981.0,50815.8,11985.5,66807.9,184775.5,76012.0,44129.1,47260.6,0.0,16144.2,
269,0.22,30545.7,39029.6,34789.0,29554.6,40914.3,43741.5,39453.0,43111.4,53485.4,14991.8,20676.3,118822.1,40705.0,20521.3,51105.2,81845.2,81801.1,30547.5,27272.5,0.0,21031.5,
270,0.214,13623.5,22580.6,24751.3,24550.0,22232.3,31252.8,29137.8,14947.4,35685.3,66729.3,28130.5,197229.1,103066.0,13504.4,45759.1,89148.7,218427.8,36062.8,34382.6,0.0,35693.6,
271,0.294,22986.4,27299.5,39329.5,46434.7,26720.7,36690.8,42564.7,26442.6,41463.6,42908.6,62573.6,104896.4,56074.0,23772.1,63747.7,203432.8,129203.3,42860.3,39887.0,0.0,21154.9,
272,0.326,13225.7,20767.8,27196.5,29097.6,18749.2,25221.3,27286.1,14979.4,28138.1,35541.6,30974.5,104345.2,42267.8,21088.0,37181.6,93869.3,91948.6,26769.7,29427.8,0.0,27403.2,
273,0.252,25097.5,36775.9,48180.7,43891.0,44546.1,60184.0,57766.1,40251.8,67333.1,75139.9,27511.6,130121.3,106629.4,19194.4,41571.6,58713.8,157749.1,64547.5,61565.0,0.0,37746.7,
274,0.186,7886.7,12039.2,17175.0,20037.0,13492.9,18111.1,23300.9,11533.5,26546.0,40282.2,10011.0,68294.9,47293.3,6932.8,13081.4,22616.2,85062.1,28443.6,29776.0,0.0,17103.8,
275,0.167,8443.2,11139.8,10642.2,14034.9,11099.6,14701.4,12634.1,10800.7,15908.3,26347.4,32316.5,53878.4,30464.3,10399.5,41820.3,134721.4,52096.7,17726.0,17392.4,0.0,35643.7,
276,0.219,19278.9,27435.6,32767.5,32688.4,22787.8,30042.7,30783.6,20165.4,32383.0,49249.2,44150.4,180985.2,83123.6,14562.0,67346.3,159454.3,153746.0,34297.3,35535.1,0.0,35390.0,
277,0.218,9976.3,16919.7,26964.0,28157.5,19501.4,28120.9,32405.8,16780.9,41983.0,37209.5,33279.6,140972.6,61561.6,12489.0,48655.5,137495.5,117553.4,36889.1,21861.7,0.0,23507.7,
278,0.26,21966.2,30306.3,27101.8,19649.0,26822.1,29825.1,26072.9,14386.5,35566.8,75652.5,34291.0,244835.9,91917.2,7723.6,56263.6,243255.1,316839.2,24548.5,27867.3,0.0,24194.9,
279,0.216,15253.7,22748.0,31918.6,40171.5,22179.3,34064.2,38312.2,18370.4,31753.1,50942.4,26589.7,76850.8,66224.8,15044.8,30751.2,56214.0,67539.5,44443.3,44383.5,0.0,43500.9,
280,0.208,9819.8,18079.1,24571.9,20206.2,14391.8,18399.4,20505.3,15618.9,24002.2,43937.4,28216.4,170420.1,59184.0,11345.4,48824.8,144040.5,220399.9,18650.2,23671.5,0.0,17407.7,
281,0.216,19170.6,27816.8,33459.3,29242.8,29840.6,35337.4,41040.1,27901.7,39788.7,23878.2,16201.3,47788.4,31010.5,15478.0,26372.4,32952.3,31625.7,34219.0,27795.5,0.0,43484.6,
282,0.269,7959.4,12718.0,13226.0,15309.2,9912.4,12157.9,12307.7,12712.2,16660.0,32080.5,19017.6,66978.7,31554.8,7971.8,31513.7,98222.2,69115.2,19432.5,35893.8,0.0,39876.7,
283,0.295,19566.5,36973.0,45647.7,43693.0,31443.1,42344.1,46962.8,19303.2,40362.3,54064.7,37610.8,63934.3,46268.9,10476.2,35800.8,185826.5,107078.0,41048.6,44165.0,0.0,30935.8,
284,0.17,5008.1,6061.1,6089.4,5880.7,7211.5,7514.0,6527.7,7568.8,11662.5,7497.9,4805.9,40881.2,16096.8,5381.2,9596.1,36554.8,22852.4,9453.8,6309.6,0.0,9610.2,
285,0.248,24343.3,30828.1,26991.8,21748.3,30576.4,34307.6,32045.9,27268.1,40780.7,24299.3,22608.6,38488.6,34006.2,23250.2,19918.8,17558.5,28218.3,33065.3,26661.5,0.0,57095.2,
286,0.247,9754.7,11119.5,12208.4,12152.2,13713.9,15408.9,16221.2,17074.3,23713.7,17255.6,21198.8,40646.2,19816.9,16806.6,29057.5,96013.0,33983.2,16940.4,14637.2,0.0,18669.2,
287,0.214,5822.2,9743.5,13169.0,13257.0,8696.5,12323.2,12379.2,7340.5,15227.1,17313.5,6975.7,17279.9,16238.3,4489.3,10619.5,13767.6,16586.9,12241.7,14980.8,0.0,16483.3,
288,0.252,9616.0,11530.1,18414.5,22882.3,11076.2,14648.1,17444.4,10710.4,14651.6,21912.2,9743.3,20839.9,22208.0,7470.0,14327.8,20475.4,22077.4,19709.5,31375.8,0.0,23739.5,
289,0.196,14832.6,21166.4,20587.9,17482.6,24016.1,29898.1,24319.8,20864.6,33818.7,12507.0,13548.9,15954.9,16882.5,12894.3,14005.1,59184.7,15689.0,20306.9,21043.1,0.0,31045.7,
290,0.277,14235.2,18516.7,25086.9,27991.7,22113.6,28803.0,29757.8,15474.6,31256.8,19625.1,29115.5,77306.4,24713.6,9527.4,35808.5,227800.1,97312.0,29559.7,21322.0,0.0,29587.1,attention forward again
291,0.196,6715.3,5070.7,5863.2,5128.8,7534.4,6498.7,7108.9,11225.2,15554.4,24427.8,12427.5,26532.9,12126.7,11118.4,16493.1,36946.4,43773.7,7061.8,8234.0,0.0,16565.3,
292,0.262,10035.6,13032.7,14147.5,15355.5,14571.8,14903.5,15451.4,11519.7,15894.0,14625.1,12415.9,16752.8,16561.2,11482.9,12434.4,31952.9,10617.2,18353.8,14855.1,0.0,26304.4,
293,0.418,11301.8,14320.6,16067.2,22609.6,13022.4,16419.3,17091.1,12686.6,15895.2,13762.5,13323.8,15835.3,16728.4,13560.0,14748.5,33934.2,14740.7,18293.1,21534.4,0.0,40813.0,
294,0.424,15810.5,19769.9,21421.4,21333.5,20662.4,21470.1,23123.3,19449.3,19976.5,13742.0,13450.4,22569.1,18953.2,14426.1,19230.7,22335.5,24023.4,19386.7,13912.6,0.0,38663.6,
295,0.252,8386.7,8555.3,10558.4,17096.2,9023.2,9233.5,10418.6,8947.4,10144.0,24979.1,12574.0,23960.0,22752.3,10050.7,12531.5,25120.5,35946.1,15333.1,14857.6,0.0,36120.2,
296,0.241,8812.8,11645.3,15656.5,17233.3,11216.0,16356.2,17134.8,10741.2,18174.7,13601.7,14098.2,19664.4,15979.2,11596.7,14496.2,17031.6,15358.5,17552.6,21479.6,0.0,25569.1,
297,0.436,7910.9,11368.4,13081.3,15316.8,10520.6,13950.3,14139.3,9973.8,12694.4,16615.4,13946.4,12739.3,12881.3,14556.6,12363.7,23072.2,15228.0,13538.2,21444.9,0.0,21314.9,
298,4.931,26400.7,49957.2,43084.0,28885.4,32575.9,36261.1,31463.6,20072.7,27397.4,16944.2,13945.2,32468.0,19547.3,15202.9,13916.5,102060.1,73380.6,23104.7,20398.3,0.0,44648.0,
299,3.527,13685.8,99953.6,63338.4,31444.4,16495.7,19353.1,18371.9,8422.9,12123.7,17337.1,8515.2,10513.8,17155.7,12525.5,6801.9,10370.2,12078.5,26278.9,20067.9,0.0,34789.7,
300,0.172,9006.2,8540.5,7997.6,9331.0,8490.5,8763.4,7491.7,8796.8,13072.7,8920.5,6500.5,19583.0,15058.1,9776.2,12531.3,11044.6,13177.5,20987.5,11519.6,0.0,25073.9,
301,0.2,9120.0,7949.4,8978.4,8034.9,8767.8,9810.7,8249.2,8762.7,8991.9,11716.6,4711.0,9126.8,11095.6,6647.1,6889.8,5202.9,11688.3,9552.5,18392.2,0.0,10308.0,
302,0.258,5846.3,8437.7,8774.7,8891.8,7457.8,8457.8,8907.4,11115.2,13304.4,15718.3,9307.3,16367.5,15589.7,7556.2,12818.0,15355.7,17272.7,12670.8,16223.8,0.0,24709.4,
303,0.174,8099.6,10908.8,15103.7,13322.3,10143.5,11666.7,10543.2,10018.1,11075.2,12731.6,4791.4,5733.9,8650.1,6651.8,6325.3,3651.8,8559.7,10741.3,19469.3,0.0,20989.2,
304,0.396,21068.7,25448.1,24612.5,21119.8,27239.5,26153.3,21997.5,19587.7,24191.4,10525.3,12451.1,18525.1,11430.8,15050.9,14252.4,17158.4,12406.8,14252.1,11979.4,0.0,27643.0,
305,0.167,8129.8,7631.0,7599.0,7684.5,7873.7,6768.8,8876.6,7101.4,7466.8,6617.2,9016.0,7699.9,7462.3,10372.6,7254.8,7933.1,7257.3,7487.2,7457.8,0.0,28132.4,
306,4.757,16707.3,46058.6,34650.8,18555.2,18454.0,23002.0,20431.7,14000.6,19814.3,13919.3,24075.7,17873.3,14446.6,18741.4,16921.4,28801.2,20009.4,15830.9,12503.9,0.0,48316.2,
307,0.235,14819.8,14282.9,13729.3,12913.4,10061.5,9417.5,10686.5,9159.8,7461.2,15625.4,17985.2,11979.6,13032.6,18154.4,10152.6,13325.4,13302.1,10009.1,14922.2,0.0,28075.0,
308,0.173,8510.4,11831.3,15416.7,15275.2,12976.9,14747.2,18229.1,12508.4,17017.3,14684.1,9502.3,21101.0,20515.6,6472.9,13829.1,17220.6,23059.1,18422.4,15718.6,0.0,25440.5,
309,0.229,25469.4,22881.2,23857.9,25822.9,28865.9,27357.5,24975.8,30391.1,30527.3,28727.1,30344.1,33973.8,33074.7,32527.0,31992.0,25585.3,29102.0,29231.6,32835.3,0.0,24824.0,
310,0.199,6468.1,8483.2,10881.6,11577.1,11095.4,13652.3,14761.6,11443.5,17653.0,8931.1,8111.7,16276.9,15352.2,6193.6,12054.8,10961.0,9961.3,14571.6,10616.0,0.0,10696.9,
311,0.178,13955.7,16771.6,17971.0,16871.7,14535.1,14738.3,15498.6,16714.4,14047.5,19900.1,15174.5,15595.3,15865.8,13747.4,17818.7,18533.9,15877.9,15318.2,19151.2,0.0,48709.8,
312,0.159,7487.1,11002.6,12066.9,11001.5,9671.1,14712.5,13143.9,6433.3,11836.0,9215.9,7793.1,9505.2,10401.4,8901.5,8428.2,17652.9,10525.1,12202.1,9267.4,0.0,23014.4,
313,0.195,11288.0,14103.9,13994.9,13626.7,14170.5,16242.3,16851.7,12008.1,17738.5,14926.1,15655.1,25181.5,20557.3,16224.8,13597.9,16099.1,21058.7,17138.6,14274.6,0.0,39518.1,
314,0.34,17198.7,19654.7,20442.9,22032.0,23601.3,25112.9,22908.4,20333.7,23084.7,23988.2,21519.8,21884.8,19323.8,24904.1,19649.7,27984.4,28324.0,23403.6,28539.2,0.0,26347.0,
315,0.379,12217.2,12631.4,15516.2,13526.6,15181.3,16829.3,14690.9,11694.2,15790.4,16129.1,20318.2,12920.8,12224.7,14241.0,16785.0,25564.0,15426.3,11622.4,12861.7,0.0,21306.3,
316,0.291,8575.3,10542.3,9855.3,7903.7,10800.4,10654.6,11052.1,9097.8,10260.1,4844.5,12895.8,10077.3,8089.2,11902.3,11243.9,18665.7,9006.5,8554.9,5973.6,0.0,23901.1,
317,0.15,3761.2,4770.2,7527.6,5710.8,5459.7,6765.0,6713.0,5774.4,5635.4,7724.0,8341.4,6752.1,6708.2,6370.0,8636.2,14741.2,8517.9,5029.9,8656.3,0.0,19200.0,
318,0.199,11620.2,15079.8,13153.2,12324.0,15805.9,16819.8,17307.1,11824.6,16343.3,10125.0,12759.5,16535.3,11215.7,11171.3,12486.6,31058.4,12562.2,14150.9,12289.9,0.0,40350.6,
319,0.184,10848.9,14064.4,13209.3,12074.3,11837.9,12641.7,11895.6,10041.8,12950.6,15737.5,11617.6,15201.9,17121.2,11198.8,10089.8,18080.5,21249.2,12797.2,17090.0,0.0,36287.3,
320,0.165,6290.3,8684.2,7585.3,6708.8,9125.9,8538.3,7277.6,8192.4,7231.2,7316.9,7994.5,7591.5,6444.4,4653.4,8901.0,14200.1,13324.9,6638.3,9094.7,0.0,15633.4,
321,0.23,12657.4,13391.5,16416.7,20450.8,12720.5,14293.4,14933.0,13759.7,11743.9,24427.4,30190.9,19807.0,21629.9,20302.4,26224.1,36485.5,24569.2,16741.2,26785.0,0.0,8357.5,
322,0.203,7006.0,9272.1,11547.7,14114.5,8414.4,10052.4,10196.8,10361.7,10985.8,21810.6,20342.7,22512.8,18548.0,8907.3,21542.2,39357.4,34713.8,14108.3,18235.3,0.0,29420.5,
323,0.212,7668.8,12655.1,15279.9,16317.9,12543.7,13752.5,13860.8,9495.0,13105.8,21064.8,11940.6,15133.7,16292.8,10638.3,13037.2,14841.0,13575.2,13997.5,23339.3,0.0,20908.8,
324,0.334,8390.4,11425.0,12946.9,12507.5,11809.0,14118.4,13365.7,11410.6,12101.8,17624.5,12710.2,13031.9,17547.2,11153.1,13226.5,15649.0,14827.7,15337.1,16546.0,0.0,21585.6,
325,0.196,10135.0,14816.0,19131.3,19769.7,15665.6,16747.3,19014.7,12000.9,17470.7,24438.3,5620.2,18395.0,24724.0,9107.1,8129.5,10743.0,21180.3,20974.5,25248.8,0.0,32580.7,
326,0.205,17178.2,22689.7,31088.7,29887.4,25027.3,31925.3,37816.2,19367.3,33072.7,22484.3,15145.9,21452.6,26944.0,15771.6,14321.7,22200.4,18554.2,31742.8,28857.1,0.0,42054.5,
327,0.177,9375.5,13247.0,17068.0,17979.4,12103.0,16045.0,19103.6,11022.6,12279.0,12072.6,15029.0,10743.6,12930.7,11498.3,17878.6,45464.2,13926.5,16336.2,13600.5,0.0,25102.5,
328,0.248,17880.4,13795.7,13602.8,15946.8,17397.0,18255.3,15523.4,21377.9,22410.1,23109.0,21115.5,23343.1,16189.5,24685.3,21994.5,29376.2,26932.1,16617.5,26458.6,0.0,16964.2,
329,0.285,7494.9,8325.8,9452.5,8878.1,9216.9,9154.3,10429.5,5624.9,10239.3,8153.8,4235.6,12538.1,8731.8,4911.4,6639.4,15512.3,15152.1,8925.7,6227.5,0.0,22841.1,
330,0.156,6358.1,8641.9,9466.9,9953.9,8205.9,9431.1,9435.1,8865.4,9316.9,6259.8,6212.7,8537.6,6725.3,5568.3,8414.0,9817.3,5999.4,7499.4,13971.2,0.0,21740.5,
331,0.193,10015.3,13262.9,13185.6,10109.1,12559.6,13336.2,12424.7,13143.2,14386.9,7001.6,14746.2,16904.5,8587.9,10420.5,19682.1,24125.9,9464.1,10547.5,8167.2,0.0,19605.8,
332,0.159,6901.3,7268.4,9385.9,12063.4,8919.9,12791.0,13142.3,10694.2,20415.8,22126.7,10026.7,41180.6,27788.0,5606.5,17429.9,28989.5,28108.9,19559.9,20409.1,0.0,20565.8,
333,38.01,32371.0,149475.6,132521.5,188138.9,39688.4,50411.8,49077.3,23446.4,35536.8,30628.3,23679.3,37262.1,35145.8,19707.0,28294.4,38057.3,34677.4,33078.1,33236.9,0.0,43338.8,
334,13.223,18068.1,47887.0,43796.2,26628.7,21339.7,26015.0,24126.5,16730.7,23535.1,17067.6,17174.4,16863.2,18054.5,14874.3,18543.1,20892.6,16387.3,24679.3,20840.5,0.0,32784.9,
335,0.544,19816.5,23326.1,25748.1,28253.5,26770.1,27544.1,31047.2,26537.3,35739.2,35897.1,19987.6,29838.4,34760.4,21746.6,25647.9,28212.1,35504.2,35542.0,35940.1,0.0,41443.8,
336,0.297,13005.7,13378.8,11819.8,10898.6,14976.8,17132.8,14727.4,11068.3,15952.8,6013.7,10063.4,12521.8,8460.6,11948.2,11047.6,14539.3,10352.2,9200.1,8238.0,0.0,19146.6,
337,0.24,8521.6,8726.4,7649.7,8379.4,6670.6,7094.6,6781.4,6058.9,6525.7,7358.5,6226.7,6811.5,7214.4,5906.4,5737.8,6836.0,8739.1,6894.4,5855.0,0.0,18903.7,
338,0.192,7506.2,7757.3,10033.8,9306.5,9428.8,8951.0,9364.5,6996.0,8637.5,9500.1,12383.5,19319.4,9095.5,10059.2,11127.7,18269.0,11925.2,6897.4,12540.0,0.0,18667.6,
339,0.314,9966.0,15398.9,27750.4,36129.5,17649.4,21750.7,29347.1,21498.9,28580.1,46754.1,21976.7,47827.3,49164.6,16315.6,28111.3,35697.3,47275.1,37433.5,45704.3,0.0,25004.7,
340,0.385,8870.8,9912.4,13568.5,13927.1,10571.3,12031.3,13504.1,12257.8,12986.4,14002.9,14787.4,20334.2,18555.1,13699.3,15031.2,16871.9,17714.2,14852.0,17768.1,0.0,20605.4,
341,0.365,24896.6,28306.7,27791.9,27536.1,25099.5,28484.6,29682.5,23647.6,29615.1,27440.9,20140.2,26685.9,30135.7,22921.7,21681.2,19457.0,24348.5,31575.6,31781.1,0.0,21234.6,
342,0.34,9918.0,13532.0,19380.9,29076.7,16608.4,18717.5,17815.0,19799.0,19802.1,12510.1,19527.3,17185.1,15490.5,12700.5,27509.4,33945.6,17801.0,21121.5,18395.5,0.0,19199.3,
343,0.255,10956.8,10984.4,11607.1,13325.6,13234.4,14773.1,15582.0,15951.9,16431.5,21065.3,23377.6,20116.5,17533.0,14830.6,22425.6,53313.3,20077.9,19993.1,22475.7,0.0,26077.7,
344,0.274,8811.4,8955.4,11848.0,12969.2,8944.5,8872.8,10589.4,8339.2,9580.6,11979.8,6081.5,11155.9,13183.7,10363.0,8332.3,7877.1,12534.9,12419.9,13609.2,0.0,32259.6,
345,0.43,27910.0,24363.0,27683.5,28935.4,28802.5,29007.7,30650.7,27073.6,32426.2,25557.4,26803.1,25902.1,28663.7,24975.2,29301.0,29283.6,20811.8,30565.6,31961.0,0.0,52022.3,red dot / bunch of puirple around it
346,0.383,13958.7,14771.8,14643.7,12665.4,17705.1,17091.8,17994.4,16406.1,18862.4,12764.5,11919.4,14022.0,17676.4,11727.8,15512.2,12806.2,12635.3,20705.4,18917.7,0.0,43921.8,
347,0.329,11305.3,12482.3,16341.8,14868.4,15182.5,16770.6,15281.4,8777.5,14277.6,9799.5,5304.6,8956.0,9569.9,11524.8,5203.8,8827.1,9062.5,16404.2,10283.4,0.0,26701.1,
348,0.318,12436.1,17449.6,16186.3,13330.8,14708.1,14837.3,14514.1,15969.6,12470.6,11365.5,11877.2,12524.7,12671.4,10756.3,15683.9,23016.6,14706.9,13452.8,11939.6,0.0,27740.4,
349,0.394,19927.9,22027.2,25982.6,22262.2,24836.0,25785.3,24450.4,18292.0,25981.6,31252.1,15898.9,26138.3,23615.9,15264.6,20005.8,63253.1,27412.6,24858.5,31435.1,0.0,24559.6,
350,0.325,4782.0,6443.2,8895.0,7798.7,6523.7,7861.6,7692.2,7094.2,10058.9,8895.1,4233.3,48559.9,12670.0,3196.4,8761.1,25643.5,11307.3,10878.0,9185.6,0.0,16073.2,
351,0.296,12516.2,19544.1,24770.1,20047.1,18361.4,25471.7,26086.0,19379.2,34067.9,30458.6,34539.6,273729.8,73880.2,8943.7,71852.5,264147.7,242496.8,27895.0,21753.1,0.0,17770.3,
352,0.305,21147.9,37754.7,46033.0,35480.2,35555.1,44475.2,44627.2,31773.9,51595.6,22912.5,44796.3,253956.4,74734.5,12423.5,77700.6,202250.5,116781.8,40976.1,17104.4,0.0,26977.7,
353,0.287,16483.8,19595.5,23127.3,23394.1,23454.5,23326.8,20903.8,18895.2,23318.5,39378.8,13352.6,126042.0,59006.9,12399.5,28537.8,63333.2,70172.3,24477.3,46154.6,0.0,23026.7,
354,0.275,15207.1,17204.8,21726.0,16354.9,19515.4,23074.7,22800.8,20481.9,24994.6,12173.2,16409.0,37577.7,18016.5,14633.8,19685.4,23305.1,21200.7,18524.7,13271.3,0.0,38486.6,
355,0.434,15037.6,14416.4,16433.5,16570.8,15313.1,15131.9,14918.6,23799.1,16087.4,20405.9,27033.7,45255.8,20762.6,25477.9,30714.7,47896.6,21765.2,14992.9,19171.7,0.0,13319.2,
356,0.269,13323.2,15143.5,14815.8,10463.7,16674.6,17062.6,16435.9,15243.6,21257.9,7908.2,13963.3,70729.6,19074.4,12755.4,26868.9,41883.7,21844.7,12204.7,8993.7,0.0,33670.1,
357,0.328,10815.9,12316.0,13651.2,15303.1,13980.3,15086.8,15222.6,14827.4,18450.0,18392.5,16358.9,63645.3,25102.5,21466.1,21065.7,41042.4,31951.5,16242.4,23435.0,0.0,15571.7,
358,0.258,10453.9,9535.6,8554.3,10521.6,12406.5,9880.2,10167.3,12978.4,16366.5,10538.9,10266.7,31798.6,10359.9,9882.5,13921.4,22573.4,11926.2,10899.4,11596.7,0.0,24819.9,
359,0.273,12192.8,8126.7,8716.4,14158.0,10593.6,8491.2,10786.4,13611.8,12658.2,24770.0,15079.0,18450.0,19455.2,18215.0,17204.5,17381.2,18139.6,14083.0,27309.3,0.0,35391.3,
360,0.438,15634.1,19564.7,19927.6,25210.6,21503.4,21974.0,23922.9,21802.7,23900.0,29493.2,17666.0,25281.1,29655.6,13608.9,20408.4,27876.9,22611.8,29694.5,39541.1,0.0,37143.5,
361,0.367,17178.0,18150.3,20763.5,19936.1,21112.0,22909.6,21468.1,25106.7,25307.2,22692.7,25851.1,31560.2,23128.7,17822.0,26805.2,29810.2,25133.1,19457.8,21025.3,0.0,35910.0,
362,0.321,10844.6,8442.6,9759.8,12036.1,9386.9,8291.2,11725.9,14990.5,13673.7,16226.0,10669.9,15982.7,17061.9,16217.5,14314.6,13454.9,19066.9,15399.4,18807.8,0.0,27986.2,
363,0.288,10624.5,10840.1,14907.1,9161.0,9081.0,10191.9,9365.2,10551.1,8982.6,13375.6,6694.2,14041.9,13800.4,10084.9,8223.2,8205.0,19343.8,9212.3,11130.2,0.0,29530.8,
364,0.278,11954.6,12814.7,11297.9,17504.1,13269.2,13691.9,13828.1,19024.4,16687.7,19850.9,15181.9,32442.5,14465.9,12840.2,24268.2,29936.3,14734.5,15504.4,33602.3,0.0,18694.5,
365,0.259,5792.5,10261.7,13336.8,12178.8,10598.6,12084.7,16390.9,12149.5,26704.6,34884.9,11377.5,91147.3,49224.4,5048.0,20747.9,32102.3,73892.9,27259.0,21352.9,0.0,22497.7,
366,0.277,5640.4,4176.7,3982.5,5878.5,5213.3,5417.9,5805.3,7255.2,7206.0,4863.0,4618.7,31120.9,8740.1,4762.2,9218.5,17040.7,8999.5,7063.5,11430.9,0.0,13328.1,
367,0.269,13289.1,15997.2,20627.9,21255.0,15862.7,18259.3,21442.3,18982.6,22437.3,22770.1,17406.5,82411.5,33753.4,16865.3,28326.5,42919.0,39986.4,23630.5,31186.0,0.0,42626.9,purple spinning
368,0.472,23835.7,24798.0,23495.7,19049.6,23844.1,25930.4,21667.4,14830.4,17353.1,11650.5,13339.1,40927.8,11557.5,20223.6,8111.9,14602.8,24248.4,12506.1,15964.6,0.0,29633.9,
369,0.391,9342.3,9455.7,12738.4,16607.6,9889.4,14240.7,15066.1,10561.7,12357.0,19509.3,12161.2,34817.6,22778.4,9387.0,15620.9,26112.9,38931.8,15832.3,13317.8,0.0,22563.6,
370,0.281,13734.8,21561.2,29103.5,19806.8,19420.3,22872.5,23202.2,17865.6,25313.4,13273.9,16021.3,38343.6,22119.7,15509.9,22116.7,32525.9,32695.1,22420.7,18379.3,0.0,16859.2,
371,0.537,11223.8,20049.9,25237.3,19967.7,15798.0,18212.7,19996.5,14270.9,18379.1,22557.1,19767.4,47591.0,25823.5,13288.5,16893.5,48611.2,44081.2,18712.4,22255.3,0.0,21609.6,
372,0.254,7457.4,10328.8,11911.0,13162.8,11392.5,10005.2,10909.0,9551.8,14958.6,18011.8,6604.3,23745.9,18253.1,6870.8,11272.6,20562.2,31459.0,16931.7,17177.2,0.0,20400.6,
373,0.43,25015.5,27323.0,24278.5,24835.7,30641.1,30682.5,28390.2,29212.5,33667.2,26442.9,26535.7,26902.9,27711.6,22157.9,29053.8,28913.1,28214.4,27359.1,26646.0,0.0,53738.1,
374,0.286,7597.1,10130.4,11190.4,9485.2,9475.7,11332.2,12266.6,8822.9,13634.6,14562.4,11345.3,48414.1,17282.6,8214.6,19001.2,39381.3,24615.5,14847.1,11133.1,0.0,13313.4,
375,0.255,9723.7,13282.1,17123.6,18789.9,17158.4,22332.6,25131.0,14860.3,39384.1,17202.6,5527.4,95410.7,41603.6,8179.1,10968.9,31488.5,41736.1,33193.8,20535.8,0.0,28222.5,
376,0.291,18721.1,21412.7,26610.0,23250.7,22985.1,27271.7,27488.3,25720.1,32395.8,24696.9,17167.8,53461.2,29604.9,16639.2,28084.8,34347.3,30477.7,25134.0,28068.2,0.0,29934.1,
377,0.207,8942.3,9281.4,10180.3,9888.6,9727.5,10476.7,10959.3,9796.5,15076.6,12444.3,10198.6,60050.6,24563.4,8905.9,11635.7,19428.4,31030.7,16362.7,15863.8,0.0,22788.3,
378,0.237,17492.9,21614.6,19835.8,17228.8,22206.2,22734.9,20549.0,23213.6,26592.7,19087.4,9929.8,68329.0,29501.7,19245.1,21849.5,25174.3,40153.3,20765.6,14945.3,0.0,29031.3,
379,0.283,16332.5,23024.5,25210.8,28239.0,26666.2,32360.9,30183.0,25920.4,40721.5,44717.0,21663.7,82650.4,52679.3,16363.8,32515.9,53381.4,65481.1,34804.7,51784.0,0.0,39399.3,
380,0.238,13623.5,16209.6,17062.1,19072.9,16607.1,17752.9,17094.0,16533.9,19487.4,16762.1,13327.0,36137.9,18138.7,13074.8,21457.3,26086.1,21332.4,16374.6,23673.8,0.0,25968.4,
381,0.463,13976.5,12634.0,12191.0,13539.9,15356.7,13973.1,13750.4,16690.1,20045.8,14770.7,13656.6,27893.7,21703.9,12667.7,19550.1,21292.0,14413.6,17464.2,15765.0,0.0,20260.5,
382,0.244,8015.8,10380.1,12847.8,12540.2,10116.3,12122.3,12922.8,9205.7,14509.0,10021.9,4428.9,9018.4,14083.1,4995.9,6493.7,5786.0,8162.2,11922.3,15332.8,0.0,17446.8,
383,0.561,17357.2,25088.7,31737.7,26780.5,21966.6,22619.4,26270.1,18622.7,23342.6,26962.4,22883.3,34705.3,33453.8,15683.8,26358.4,34055.6,26009.1,27055.8,27799.9,0.0,31613.1,background 3d stuff
384,0.305,10979.4,10018.3,10878.8,10627.0,11506.6,10471.1,9638.5,12534.6,18638.3,13102.6,9079.0,35977.1,18129.8,9381.1,15893.2,21385.7,17284.4,12904.5,13812.1,0.0,26959.2,
385,0.336,22015.4,23128.3,25342.2,22227.0,25348.9,24535.1,24307.4,25490.1,26718.6,24383.3,18939.0,46196.1,33215.7,21933.1,21485.9,25583.3,41721.4,25110.1,23264.5,0.0,23545.0,
386,0.251,8602.2,10804.4,13249.3,12428.3,11147.4,14973.4,14110.9,13314.7,19154.9,21068.2,9752.2,95701.7,37648.6,11899.2,19003.4,40891.5,62593.3,19282.3,19658.3,0.0,27043.2,
387,0.268,4506.3,6946.2,9380.0,7246.2,6872.9,10323.8,10595.9,8469.6,14657.1,10371.8,9516.1,62196.8,23132.9,6524.8,13992.1,38790.9,31065.4,18266.3,12872.2,0.0,19180.3,
388,0.356,10539.5,16468.7,22740.2,31805.7,16041.8,26136.5,28838.9,14324.8,29262.6,26439.3,29538.4,40551.5,31917.5,21726.9,26754.6,52582.8,30031.3,34470.1,37390.8,0.0,19986.7,
389,0.28,11042.1,12950.9,15866.0,15605.6,12317.5,15698.5,17814.6,12366.2,23844.9,19962.4,30364.1,111311.2,33132.2,8437.7,46616.0,162826.8,86326.4,23242.4,16390.1,0.0,25827.2,
390,0.238,12786.8,18561.1,24150.7,23290.3,23871.4,33643.6,31654.9,24577.1,47425.6,58519.6,23818.5,132177.1,53750.5,9976.9,54539.8,122015.9,109980.1,34390.1,41930.6,0.0,26351.2,
391,0.258,8372.2,12627.0,13961.7,11281.6,12004.9,16701.1,13362.8,8104.0,14325.4,38065.2,42618.6,222765.8,70819.0,7283.2,60355.2,226092.8,188358.5,16952.5,9769.6,0.0,19617.8,
392,0.243,15674.2,23257.1,27533.9,22318.9,26969.7,33423.2,35527.4,19121.7,51099.5,33737.4,14270.4,232457.7,107971.8,7160.3,39080.6,114250.2,121792.2,46463.0,27102.9,0.0,10159.5,
393,0.223,13248.9,15960.5,17193.0,17831.9,17916.2,23901.4,24103.5,14586.2,34392.7,26510.1,32214.5,194575.7,52117.6,8121.2,50109.5,194352.2,172552.5,30383.6,15490.8,0.0,24177.9,
394,0.255,25105.8,23506.3,20360.7,22558.0,32306.1,30818.6,30248.1,30134.5,51848.7,30253.8,20347.7,277144.2,95126.2,14045.9,54489.1,150075.3,144818.8,37538.3,19773.9,0.0,28949.6,
395,0.211,14444.2,16462.7,17756.3,20325.8,16004.6,18020.8,21167.8,19476.8,22493.9,26799.9,24629.0,31309.0,28367.1,16000.3,25557.9,37882.1,30974.5,22581.0,20342.1,0.0,37220.2,
396,0.242,6711.7,10112.9,17082.1,20669.1,10121.2,15908.0,19942.7,8729.8,22668.1,34779.9,14831.7,58566.2,37620.1,8744.2,16930.6,44229.6,46609.5,27719.3,31400.5,0.0,12486.1,
397,0.241,9289.0,18444.6,21877.8,17499.9,17822.5,22137.2,23503.3,13663.5,21652.5,12706.0,47081.0,50948.6,12225.0,11013.8,45492.6,151303.7,20680.5,17525.4,13908.9,0.0,14708.9,
398,0.227,13026.3,20431.7,22547.3,20512.6,20735.2,25922.1,28040.1,21926.9,39705.3,30233.0,39869.6,213687.1,63446.0,12547.1,77320.3,227277.6,160201.4,31411.6,19109.7,0.0,12854.5,
399,0.207,11119.2,15630.8,14600.6,16144.8,12885.7,14032.8,13794.6,15399.6,16052.3,12392.2,14800.6,58620.0,17402.0,16956.5,25059.1,53825.0,38786.2,13269.5,19821.7,0.0,33255.5,
400,0.216,9895.1,12406.9,13431.0,11467.1,13811.7,14166.8,13080.5,22196.8,25759.5,9722.7,21215.3,103064.1,24725.9,14074.9,48431.4,67133.9,19878.0,17049.8,15591.5,0.0,19197.9,
401,0.212,18700.2,26605.9,30924.1,26674.0,27770.5,31790.1,35066.5,29970.4,46467.5,21771.3,32290.6,123892.3,33315.9,17106.4,60715.3,150377.0,44268.1,34131.5,27431.5,0.0,50096.7,
402,0.357,25323.3,30333.3,32507.9,32743.1,32723.8,35046.9,36268.5,36032.8,48003.8,57470.9,54624.6,221303.3,78333.3,27550.9,85929.3,235604.3,118023.4,44726.3,39641.0,0.0,35872.1,
403,0.427,26371.7,33795.2,40654.4,40515.8,34449.7,39643.0,47034.2,35286.7,67346.4,50424.1,26519.8,168868.3,87429.0,19331.1,49886.9,93822.1,98024.5,60006.9,45228.5,0.0,33548.7,
404,0.198,9851.1,12163.7,13610.9,9223.2,10095.4,11559.4,11877.1,8132.6,11827.5,20786.1,16577.3,26991.2,23289.2,10002.4,12911.2,43201.5,37908.4,11545.5,12836.0,0.0,23505.1,
405,0.224,8170.2,14181.8,17660.6,19449.1,13248.7,18426.4,19860.5,11355.5,21359.0,22187.1,17806.6,81166.3,31744.9,7598.3,21604.5,55071.5,57969.7,21127.1,21423.9,0.0,29035.3,
406,0.191,7643.2,8025.7,9307.1,8200.4,8891.7,8376.6,8482.3,10746.2,10064.6,12419.6,16967.0,20182.2,12522.9,10285.8,14383.1,25992.7,15046.9,9264.8,16737.9,0.0,42319.6,
407,0.198,12304.5,15542.9,19184.0,19205.3,19297.7,19145.8,22767.5,15565.9,24714.9,19948.0,15329.6,25055.2,18436.6,12002.8,15613.8,38081.5,33819.4,20920.3,30091.4,0.0,27469.4,
408,0.234,11309.9,15531.9,19796.6,18846.3,19722.8,21401.8,22033.4,17366.3,30429.8,16416.2,12349.9,38213.9,20673.5,9218.2,13911.9,84676.8,40649.7,20814.9,18052.0,0.0,10666.9,
409,0.209,16396.7,24292.4,33664.7,28109.1,23853.3,32234.7,36260.5,11159.9,33482.0,16447.8,23114.9,48804.7,22641.5,9761.8,27077.9,117043.0,50796.4,29651.1,16910.8,0.0,18983.7,
410,0.423,14894.5,15967.7,16389.6,17766.3,17968.2,19429.8,19820.7,18862.4,28766.3,43546.5,41780.9,150505.4,59819.8,17986.7,53206.7,167750.7,211574.1,22159.8,24930.7,0.0,29611.9,
411,0.216,12818.2,19375.1,22389.1,18032.8,23739.6,30604.3,28692.8,19180.0,35954.3,48049.0,22896.1,200482.1,78475.5,10378.5,40689.0,126836.5,229238.8,23093.1,14478.7,0.0,16994.2,
412,0.185,10093.5,10536.6,14743.0,11323.4,13416.4,15821.1,15098.9,13272.0,23326.2,30611.8,17952.9,130435.8,43166.3,9181.3,29409.2,87926.4,133303.2,14916.5,11954.4,0.0,19123.3,
413,0.208,20862.8,25480.8,29219.5,25378.9,33357.0,39838.8,36142.9,40115.7,49632.6,36130.2,94612.2,227398.6,69027.2,37908.2,126751.2,333460.1,167258.8,36422.2,32023.7,0.0,20070.4,
414,0.173,10460.9,14194.9,15140.4,16079.9,15822.1,17881.6,16672.8,11108.8,17737.6,17557.8,12527.9,69100.5,19145.9,10944.9,13195.9,58498.1,54427.7,12892.4,18517.1,0.0,27432.6,
415,0.259,13801.6,19977.7,26429.5,26648.2,23879.8,32627.6,37187.9,18260.2,47861.3,59888.9,10488.4,156849.2,116319.1,7041.9,28808.3,85374.8,136412.7,62393.0,48152.6,0.0,24535.6,
416,0.411,8168.7,12173.6,12998.5,12231.6,10119.8,13397.5,12453.5,12876.0,20288.8,39054.0,37792.4,225203.1,70119.4,9847.5,67102.2,183662.1,166253.1,20221.8,19933.8,0.0,30834.2,
417,0.171,8374.9,11799.0,13217.4,14112.4,13343.3,17430.1,16861.4,18124.2,34993.2,49253.1,52682.5,333136.5,119482.1,13203.5,90778.4,281975.9,281999.5,24950.3,14708.4,0.0,18278.9,
418,0.227,14200.3,16241.2,18096.8,17733.7,21523.0,24733.9,26146.2,25025.0,54906.0,33166.1,28035.0,172456.0,67777.8,16818.2,46433.4,134680.5,92578.6,41912.8,32900.2,0.0,47159.2,
419,0.197,8030.9,11074.6,19476.9,20249.3,14676.8,21071.5,23637.5,21764.9,43135.5,42016.5,26899.8,193297.2,68500.9,8658.0,54108.9,129621.0,140856.9,34608.0,27663.6,0.0,34032.7,
420,0.195,10288.5,12223.0,11665.7,9594.5,11061.9,13209.8,12872.7,7526.5,13481.2,12065.9,7817.7,46274.5,23031.0,5372.7,9293.1,52584.4,66117.3,12699.7,10475.9,0.0,21809.4,
421,0.302,16017.3,22563.5,24488.4,23393.4,26221.9,30429.2,29025.1,27064.9,41190.1,51521.7,25249.6,143710.7,52483.2,12485.3,48596.3,136148.6,124470.3,31690.4,35068.7,0.0,16579.6,
422,0.164,7188.0,11128.2,11770.9,9935.5,11300.3,17791.5,15347.9,13557.3,19843.1,24541.9,30745.9,126804.7,41445.8,6917.7,47045.3,168910.4,137127.2,12060.7,14387.8,0.0,20593.4,
423,0.19,25838.9,38136.1,35573.9,26347.2,37145.0,45473.0,37787.0,29569.8,43791.8,82448.9,26732.2,295967.9,115423.6,18652.2,65171.1,219973.0,353521.8,36865.8,30562.5,0.0,22548.6,
424,0.231,10343.2,23745.1,33927.9,23575.6,21293.3,32087.0,32851.4,12890.3,32788.2,24103.7,24144.1,186202.3,51097.7,4624.6,42729.5,149203.9,105902.2,27069.6,22710.9,0.0,12450.5,
425,0.174,11712.4,12453.0,13184.0,12961.5,15218.5,18956.2,17786.5,14238.7,27079.7,23682.2,29707.5,141659.9,55664.0,12257.9,41109.0,129809.4,96928.2,17878.8,19573.3,0.0,21676.9,
426,0.225,12760.1,13693.5,17313.4,19874.2,15171.6,16619.4,18297.4,19145.5,26917.3,36295.0,46117.4,86571.3,72860.2,15627.9,49266.2,128866.3,59236.3,37157.6,31335.3,0.0,34281.9,
427,0.187,9189.4,10619.6,9777.4,9935.2,11825.0,11663.1,14393.4,18013.4,29271.9,27919.8,51661.2,228642.7,80051.0,13707.9,82834.6,251767.8,168173.3,22061.0,13175.8,0.0,20647.4,
428,0.224,10555.0,12908.4,14065.9,14781.6,14061.3,17915.3,19485.6,10570.7,32305.1,31878.1,19692.4,106562.3,70629.6,5931.0,29047.0,91259.1,50959.7,30565.1,27910.4,0.0,20442.1,
429,0.325,11054.9,12225.0,15485.8,14712.5,15783.3,19367.6,19681.1,18167.2,31396.4,48335.1,20553.4,112132.6,49010.4,14493.8,28795.2,76440.8,174537.5,19500.9,22327.9,0.0,19566.5,
430,0.188,14634.4,18981.7,20614.1,21040.9,21848.4,25785.6,28238.3,23699.0,44026.6,60109.7,23217.7,196834.6,90408.9,9454.7,54557.5,101686.3,102072.2,37644.1,49831.3,0.0,30435.7,
431,0.179,11780.7,16112.4,21318.2,17778.9,15232.0,17857.1,17335.4,14235.2,21488.5,45813.1,44373.7,182991.4,77846.4,10612.6,58608.7,199896.4,147023.8,22047.2,23582.8,0.0,16273.5,
432,0.295,24591.7,33046.5,36021.7,26455.9,27417.8,32574.2,33990.5,29595.7,46421.1,76842.1,59602.5,355844.1,170004.1,20855.2,108272.2,256356.7,334803.4,45926.2,29691.4,0.0,28437.1,
433,0.213,15006.2,17345.4,18779.4,20452.0,15888.4,18958.6,20140.4,13021.6,21344.6,40637.0,13812.2,194106.8,80692.9,11816.6,30040.0,102575.3,188831.9,24261.3,27398.3,0.0,22637.7,
434,0.212,16373.2,27575.4,31722.7,30117.4,30705.6,37041.9,37982.8,18529.4,36677.7,46061.8,13107.6,91062.1,58404.6,6806.8,22116.6,115607.2,144989.9,35700.5,44695.2,0.0,18284.4,
435,0.212,14738.3,18513.9,23232.3,23054.9,18352.1,24323.1,25898.0,19417.2,33655.0,41949.9,18801.6,183364.9,78165.5,11903.5,44155.1,93695.5,175124.8,33639.0,25431.0,0.0,30450.2,
436,0.172,10731.7,19450.2,25542.5,22699.4,19489.7,26273.5,25455.7,10995.1,27992.8,50731.1,38030.3,84142.1,55475.3,6313.9,36184.2,142952.4,51345.4,27883.9,49149.6,0.0,14123.4,
437,0.225,18412.2,20687.6,20033.2,16441.0,20971.6,21666.9,20900.8,16168.4,31063.2,66995.1,27577.3,266863.6,157245.6,9856.3,47284.4,144395.9,233166.7,41297.0,28595.1,0.0,30456.2,
438,0.234,29307.4,36701.0,35710.5,26461.1,42171.3,47095.9,41511.5,36857.5,59713.1,58789.9,59788.0,274545.9,114357.5,24565.7,92817.0,269466.1,222179.5,44445.2,33170.4,0.0,10411.5,
439,0.217,23462.8,26619.8,28316.3,27943.5,34774.4,40518.4,39508.2,39183.0,62552.8,23486.6,29797.8,164767.8,61143.0,22190.0,60960.6,109063.5,58952.3,43470.8,23643.9,0.0,18242.0,
440,0.457,34733.4,38136.3,40019.1,40375.3,43004.4,47165.3,50764.4,57044.9,81768.5,62559.7,72571.0,372882.8,136327.6,35229.7,151957.0,235596.7,185373.6,69776.6,62092.7,0.0,26842.6,
441,0.211,24729.4,31402.8,30265.3,25864.8,35224.5,43848.4,38925.3,25040.5,45540.2,30922.7,12565.1,156794.5,75706.5,12089.1,26244.7,141826.5,191624.1,32664.6,20712.6,0.0,21446.8,
442,0.197,19660.8,26596.3,22778.1,16353.6,32029.6,38095.8,31873.0,26051.9,52953.6,49223.3,36879.4,222860.7,97791.5,19728.2,54881.4,192109.7,165109.1,36823.5,25359.2,0.0,41061.3,
443,0.156,13336.9,20418.4,21151.3,23488.7,18917.2,21582.5,21218.3,16476.6,27480.5,74773.1,22091.4,144685.1,103316.3,13577.4,33626.5,34098.2,101430.3,41507.7,56385.7,0.0,21984.9,
444,0.244,24988.3,29836.2,31175.4,24455.9,32833.9,36746.9,34670.9,24449.5,39329.0,54443.4,41735.1,172499.0,81586.4,19499.2,55407.7,155384.8,221316.5,27660.8,27079.4,0.0,57567.7,
445,0.234,29903.1,40745.6,48766.6,45450.0,39841.8,51442.2,49167.7,31351.5,43612.3,46033.4,62831.1,229528.4,88417.9,24777.1,83830.8,259927.0,266058.2,34200.6,20076.5,0.0,41219.1,
446,0.41,15949.9,18585.0,18880.5,25443.5,16254.2,16857.2,17227.4,14232.1,16684.9,40851.6,22030.3,95798.8,46309.5,14371.1,27805.5,81291.7,73142.8,19710.6,42529.7,0.0,32862.1,
447,0.18,14091.6,17836.0,14886.6,13516.4,13361.2,14814.0,13537.3,11290.3,17338.3,32030.2,27416.8,111922.3,38076.8,16817.8,33885.6,125584.0,138452.4,15066.4,24113.1,0.0,57012.6,
448,0.191,9650.9,15513.5,17006.9,18176.7,12950.5,16528.7,19270.0,10244.4,17880.1,20794.6,20241.7,38548.7,28039.2,15952.3,20352.3,56718.7,30957.6,21508.9,22679.5,0.0,25215.8,
449,0.202,7492.6,7400.4,8219.1,12726.7,6586.8,7215.9,7906.2,6578.5,7381.4,15066.8,14620.5,13540.0,13775.0,10959.8,10130.4,19387.4,26772.9,10036.0,21990.8,0.0,29401.9,
450,0.198,7425.8,10212.5,17600.6,20395.6,12393.9,16300.9,19976.7,9467.4,19384.1,18898.4,5439.9,45967.0,22471.5,7408.1,11047.5,36829.5,51132.5,18295.3,14266.8,0.0,26153.9,
451,0.293,33369.2,36248.9,34431.7,32284.9,36314.1,36581.3,36013.0,44532.1,43379.2,58527.5,57095.8,114138.7,63785.8,40282.8,72380.9,137731.8,147446.5,40884.0,44995.3,0.0,19871.6,
452,0.194,18728.3,17505.9,15178.2,14945.0,17974.0,18350.7,17670.4,18567.4,18125.2,18306.7,16736.1,25158.9,19328.7,17532.2,19859.8,21522.6,23702.9,16909.9,20933.5,0.0,51645.1,
453,0.173,11640.3,7763.2,8324.5,7717.4,11912.4,10966.0,10380.1,17065.3,17442.6,12664.4,13656.7,19004.7,16083.7,17296.7,17591.2,15636.8,13180.1,14084.8,9233.5,0.0,29487.4,
454,0.162,9970.9,11155.6,12106.6,15289.8,12838.9,13534.5,13075.4,14424.3,14305.7,16257.7,13633.0,13161.7,17872.4,11608.4,14150.8,12256.9,16531.2,13268.8,22771.6,0.0,29182.2,
455,0.221,19151.9,20219.9,24649.2,27462.6,20536.3,21478.8,23075.8,19144.0,21694.4,27879.6,16595.2,30569.1,31096.1,17636.2,17587.2,21189.0,31503.0,25517.1,34053.0,0.0,18309.5,
456,0.178,6692.4,7390.6,7534.4,7743.6,7305.7,8893.2,8661.6,8749.6,10004.8,10177.7,6392.4,15320.9,12744.6,4616.3,9006.2,9324.2,10918.0,10948.2,19972.4,0.0,15827.7,
457,0.323,8964.9,10954.6,11436.1,12085.6,9919.3,11530.1,11483.0,10219.3,12472.4,11991.4,9265.6,20018.0,13108.9,10335.7,12415.2,22789.5,17216.0,13314.3,13558.6,0.0,36689.8,tunnel
458,0.301,9612.7,10557.2,12722.2,14626.2,12506.9,13910.0,17093.1,15399.0,15143.3,18756.1,18017.8,21718.3,19835.0,7391.9,23349.3,46704.6,72171.1,18844.4,17290.3,0.0,28887.4,
459,0.431,9541.9,15432.1,21139.4,27237.6,14492.6,17072.5,21279.1,14617.8,22558.8,24086.2,12640.7,21996.7,22460.3,11596.4,12085.0,19029.3,23781.1,30540.0,29459.1,0.0,17318.3,
460,71.738,56148.5,143816.6,143852.2,675748.6,50403.5,59559.0,66241.3,46982.9,46103.0,32944.0,25694.4,32311.1,33344.3,19766.9,24613.2,24670.4,30345.6,54334.0,52327.9,0.0,12145.6,FRUITION-CALC
461,66.253,13625.8,31387.8,28664.5,44225.6,14919.1,15169.6,13531.0,13019.7,12444.8,6465.0,8296.8,9202.1,7377.6,10861.5,9565.7,12307.6,6477.0,12496.2,9395.7,0.0,22261.8,
462,0.443,13153.3,16387.4,22972.8,27368.1,14835.8,16699.7,23230.6,12753.3,19448.2,22276.9,13811.5,22468.0,22273.3,13941.1,14157.9,35244.9,30871.7,21824.0,25085.6,0.0,31632.5,
463,0.368,28011.2,28551.1,29452.3,26699.5,31861.5,34300.0,31957.0,27180.8,37938.3,45682.9,21912.4,98797.4,53034.4,30828.5,21415.0,107495.1,164048.8,28618.7,27193.6,0.0,25639.1,
464,0.229,10663.4,12525.1,15408.5,16146.7,15594.4,17799.2,19327.3,10582.2,17312.3,27885.3,46320.4,106400.0,33053.2,15073.2,50288.7,223198.0,189664.3,14561.5,13866.1,0.0,21492.1,fruition (no self)
465,0.217,15774.9,19617.6,19661.4,15560.7,22160.3,25480.5,22985.7,24301.7,37087.4,33087.9,37499.2,183633.4,57459.7,13045.3,66655.7,155251.6,147538.9,26309.1,21542.7,0.0,19298.6,
466,0.37,13068.0,18794.3,22218.1,22529.8,20853.9,27154.8,23807.5,19603.9,28975.7,25846.4,32415.0,126556.8,42819.1,10890.8,46430.4,143530.3,147729.6,20771.6,13212.5,0.0,34700.4,
467,0.241,10704.8,17334.9,22129.6,18476.6,14499.6,17773.0,18408.6,10724.3,12246.6,17774.9,12889.7,35098.8,18256.1,7250.0,15262.9,37381.3,40935.2,27065.1,21789.6,0.0,27924.4,
468,0.283,11898.6,18673.9,23729.7,22611.9,21813.1,26810.4,26053.5,23030.6,33786.1,21470.3,11783.5,43585.8,29711.8,14464.2,23592.9,18220.2,39126.1,22866.4,20124.0,0.0,28799.7,
469,0.29,17930.2,27175.6,27553.5,29534.8,29760.1,33534.7,35284.7,23993.5,39431.7,42155.8,14181.0,44905.1,38137.5,17867.2,21670.5,47607.6,70738.8,34591.6,42113.3,0.0,31917.7,
470,0.216,10225.3,13634.1,16987.2,16678.6,15918.7,17471.5,19244.2,13823.8,22175.5,32219.6,10106.8,39972.2,31756.3,8626.5,14335.8,41992.9,90752.4,22221.4,23545.3,0.0,15901.1,
471,0.185,4438.9,6827.1,10359.7,11706.0,7666.0,10166.1,11000.8,10035.9,8935.6,15477.3,12341.9,11793.7,12790.2,7422.6,10811.4,14788.6,12853.0,11777.2,16678.1,0.0,19638.7,
472,0.25,22454.9,26523.7,27155.3,21035.6,24540.5,27204.3,26646.6,21208.3,25190.7,34132.5,17588.4,33918.3,28599.8,18664.2,18718.5,46238.0,77199.8,25412.7,23240.1,0.0,38493.8,
473,0.332,15416.5,17820.0,18459.7,15344.7,23354.8,25481.6,22236.8,27865.1,30915.6,21160.4,20682.5,57116.5,25015.6,17421.6,27408.3,49596.9,57690.8,22025.8,17051.2,0.0,28119.6,
474,0.304,18501.4,15853.3,21677.3,22650.9,17180.9,18252.0,22715.3,21570.7,27609.6,25314.0,25314.4,56992.4,33679.4,23584.2,30311.9,41509.5,50284.0,25374.7,27698.8,0.0,14937.1,
475,0.218,6225.5,9631.7,11551.8,11883.2,9007.9,10308.7,11076.6,9715.0,10313.2,21576.3,9485.8,19387.4,19662.6,8153.3,13219.6,17235.3,17109.2,18243.3,26796.6,0.0,29737.3,
476,0.234,7349.8,8978.3,9175.0,11152.8,9777.9,9852.1,9784.2,12388.5,13609.0,40295.5,22233.3,93636.3,43206.3,9557.5,28946.6,105800.1,118884.5,14915.9,22752.9,0.0,26458.9,
477,0.212,8000.5,12170.1,14831.9,16525.0,13033.5,15265.3,15247.3,11966.5,20610.8,22413.6,34984.5,128732.4,34917.2,12213.6,48825.5,198441.0,91044.4,17983.5,15783.7,0.0,37618.9,
478,0.217,17685.4,23619.2,26109.1,23480.5,28481.0,33286.4,33344.1,24779.7,44051.4,47986.8,24370.5,69874.2,64302.9,17554.0,26845.6,93553.7,53225.2,44235.4,44602.0,0.0,21699.6,
479,0.199,15070.3,16751.7,16501.1,16321.0,18156.1,18526.5,20382.1,14223.7,30648.5,58530.1,10692.6,91358.1,70174.8,8907.5,17874.3,56844.8,139935.2,32603.2,28238.8,0.0,30756.8,
480,0.206,8025.6,9104.6,13239.7,17508.8,11162.1,15487.3,15896.4,12277.1,22748.9,27639.9,17710.1,98432.9,45260.8,8471.7,34205.0,71359.5,47567.9,24510.9,32973.9,0.0,20230.4,
481,0.438,12678.3,16116.0,20716.3,19212.0,17091.5,22234.1,24267.8,14538.4,25016.1,24376.4,7101.6,54761.5,40916.4,9216.0,12846.8,18841.5,46628.5,26821.4,21308.3,0.0,13524.4,
482,0.186,8647.5,9999.5,15411.4,13158.4,9926.1,12980.5,15973.8,7022.2,13627.2,18552.7,11015.9,18307.5,18973.3,11451.3,8477.9,14248.9,25737.2,17958.3,14389.2,0.0,23609.8,
483,0.24,7715.3,11922.5,11241.7,13562.3,11045.6,13344.1,12707.1,8181.8,13833.3,14467.3,20477.9,40382.6,15457.6,7994.6,17809.1,64690.9,10316.7,14534.5,18178.1,0.0,18169.3,
484,0.251,25460.7,39167.9,40388.9,30446.2,38824.7,49122.0,44456.5,30304.5,52365.8,31327.1,16475.3,67940.3,37021.0,16600.7,29538.0,57269.3,90547.6,32453.7,26791.1,0.0,33504.4,
485,0.25,15250.7,21222.1,24854.9,19759.1,23180.1,26875.8,27919.4,16648.2,26389.3,45013.3,27800.0,162971.5,60455.0,5222.4,40195.2,160622.4,226756.3,23336.1,18192.6,0.0,31430.9,
486,0.27,14688.8,22365.4,29864.7,28418.5,23710.7,30524.1,33749.9,26573.9,51869.7,48692.9,34350.6,229859.7,99308.2,12905.7,60947.9,168248.7,240968.8,46243.2,30675.9,0.0,27832.4,
487,0.218,6973.4,11038.4,12689.7,17554.8,13084.9,15301.3,18040.6,13477.2,22406.5,17072.1,50576.3,129710.1,26239.8,8394.2,71638.9,246489.9,78509.2,18202.1,15403.2,0.0,14992.8,
488,0.259,13643.3,16674.1,19036.5,17491.4,21103.5,24186.4,24518.8,20810.5,34264.0,20148.7,16458.0,117094.5,36280.7,10799.6,32161.3,89737.2,116235.2,22470.2,11840.0,0.0,30288.1,
489,0.253,13914.0,12325.8,11236.7,11494.7,15088.0,16049.3,15245.4,18186.9,23021.2,6921.8,24089.6,56608.2,20020.5,15294.9,27241.0,34911.7,25637.5,16864.0,9432.5,0.0,22555.5,
490,11.345,11383.3,27180.2,31793.8,20220.6,13839.8,17735.8,20342.9,16240.8,13540.4,24068.7,24083.5,56980.0,28205.3,13467.9,33833.9,118644.5,52294.8,18344.3,21429.2,0.0,29462.5,
491,1.014,16622.3,24685.7,31542.6,28967.2,27955.4,28879.6,32553.5,20972.9,29174.3,18008.2,31990.1,47674.5,19175.2,11339.9,27010.7,141215.2,123245.2,20308.9,18916.9,0.0,35312.4,
492,0.228,12714.2,10314.7,11003.1,10206.8,11810.2,11895.6,10486.0,9771.4,8940.5,48507.9,22995.6,44751.2,29867.6,11320.3,19268.6,116188.9,77389.0,12366.1,29963.7,0.0,20084.3,
493,0.286,9576.5,15271.9,26597.2,32515.9,18137.7,23565.4,28405.7,21752.4,36341.8,34024.3,26865.1,130015.6,51608.9,12348.4,46707.9,154400.6,133073.4,30200.9,34611.3,0.0,21122.2,
494,0.204,12761.0,13430.6,14654.1,19343.8,12873.0,12843.9,15674.9,18607.4,19322.6,29373.3,32080.1,54401.8,38913.3,14924.0,35821.7,77683.7,67493.3,20851.1,37768.7,0.0,50393.7,
495,0.235,6798.0,15633.4,16914.9,9664.2,13968.9,17572.8,16466.9,10843.3,15942.6,30072.6,13366.5,104898.0,48692.4,8445.3,26753.9,84307.4,161003.5,13847.9,12487.4,0.0,21043.0,
496,0.386,11837.3,16680.2,20858.9,12451.7,14567.7,19556.2,16162.1,10423.6,11852.5,24043.8,25908.6,152752.2,42179.1,8726.3,39362.6,140978.5,178363.1,7171.3,10485.6,0.0,18763.9,
497,0.828,34183.6,44272.0,49761.2,41583.2,41404.2,51647.7,54404.9,24116.8,38719.6,37632.1,23619.9,100433.5,37816.2,22745.2,32566.2,121852.2,170373.6,33739.6,25570.9,0.0,56267.0,
498,0.34,10949.6,12432.4,13897.1,14772.1,13276.3,17358.0,17265.2,13956.5,25712.3,57517.4,18641.0,101812.0,68555.4,9669.2,36318.6,99101.9,137633.9,35616.2,34822.5,0.0,15457.4,
499,0.364,10501.3,11837.2,11785.2,12123.3,12457.7,13216.7,12407.1,11625.1,10968.3,31716.2,22538.0,79772.6,39304.6,9035.9,30911.0,98150.1,102896.4,15208.4,17218.3,0.0,18493.2,
500,0.22,10258.6,14664.7,17780.5,13511.2,18148.4,21094.7,18920.6,19929.7,29259.6,12075.3,17706.8,72617.4,19757.8,4901.5,25268.5,99646.7,90061.9,15722.3,8327.1,0.0,13684.8,
501,0.244,18243.6,33726.3,38360.9,44448.5,33256.7,42288.2,45432.5,29334.2,66005.2,67025.8,56839.8,290614.0,132712.5,17051.7,108695.8,271879.3,245454.2,61124.1,57319.3,0.0,39633.3,
502,0.197,10444.2,19464.2,27777.0,26176.4,19440.4,29064.1,32166.9,14668.2,26745.2,25189.8,50053.2,153055.9,38737.6,11230.3,70556.1,213352.5,140132.0,27314.7,28437.2,0.0,29912.0,
503,0.214,8390.7,9266.1,12041.9,14932.6,8436.6,9996.6,13229.6,10647.3,11561.0,46257.7,27281.8,87499.7,42863.6,10853.7,37543.5,100509.0,119541.1,18879.7,29760.9,0.0,36865.1,
504,0.191,16184.1,18272.7,22162.7,20496.6,22701.4,24042.1,25300.6,20947.2,29468.8,39006.3,21821.3,78365.7,43538.2,14922.2,30924.6,44806.8,63526.3,21069.4,25513.1,0.0,40457.3,
505,0.64,11350.2,15282.6,20689.2,18641.6,17506.6,23395.8,21550.2,12650.2,20799.5,29419.0,19012.6,89505.4,36481.3,8041.5,35973.9,105991.3,83129.9,18805.7,19682.5,0.0,24950.9,
506,0.473,16790.6,21281.1,31174.2,31199.5,23616.5,28897.7,30386.7,27089.1,29327.2,28146.1,30943.2,183626.8,67387.0,20486.4,68938.8,177901.4,174493.6,27788.6,24500.1,0.0,40310.8,
507,0.192,10903.6,13327.1,16149.9,16210.6,16962.4,19200.7,21277.4,21060.1,38290.6,61921.0,37752.5,203048.3,88717.9,13782.0,61868.8,137567.2,245778.5,25634.9,27481.1,0.0,34704.7,
508,0.767,24487.3,35130.1,38605.5,38095.5,28839.1,35283.2,37813.1,19454.1,32500.9,87069.1,35318.4,226556.3,97247.9,9696.3,72207.2,174473.2,203429.6,42955.0,68395.4,0.0,21530.2,
509,0.387,12702.2,21540.3,21225.3,18019.8,19299.5,22746.5,22284.9,15573.9,20150.6,27321.4,18804.2,125647.9,41407.6,10540.3,32704.4,85349.3,157001.9,14107.7,22631.0,0.0,18894.4,
510,0.274,25979.2,29398.2,27858.3,25824.1,31852.4,34191.7,32176.4,26866.3,37382.4,30569.1,27139.7,62162.5,39643.7,25101.7,28490.8,35800.9,46817.8,26859.1,31116.5,0.0,21000.9,
511,0.304,14996.3,17843.3,26355.3,37728.1,17426.3,26639.8,31933.8,15012.5,21255.1,57055.3,23799.6,96786.5,74306.7,15979.9,35928.9,91587.8,117663.2,40644.2,66966.6,0.0,15894.6,
512,0.351,23048.1,29309.3,34043.1,34445.9,33292.0,36594.0,36282.7,30388.8,35788.8,34852.3,28538.7,115049.6,51985.3,22727.2,43256.9,74731.3,110288.4,32663.0,29822.1,0.0,60580.6,
513,0.251,14072.7,16524.4,23584.2,29886.7,15162.0,18457.3,19843.6,7525.1,13040.8,33399.8,11620.7,96717.4,45972.6,6192.6,33278.8,112808.9,115007.6,25162.9,47727.1,0.0,19209.6,
514,0.304,16959.8,21814.1,20301.8,17459.8,18325.9,19943.4,16193.2,11920.5,12484.2,17454.5,22616.8,52416.3,25635.0,15735.1,27492.7,63158.1,73652.1,9162.4,16266.0,0.0,42270.3,
515,0.401,11762.6,11632.4,14552.3,14376.0,11642.8,14358.0,16578.6,9597.3,13885.3,61449.9,28247.4,54342.0,34244.5,12137.8,30071.0,85220.8,152849.4,16056.5,20014.2,0.0,15731.1,
516,0.265,16687.2,26083.8,26055.8,23360.8,20556.8,26959.0,28061.1,15972.4,27374.2,55065.4,38609.2,204480.8,67346.8,14105.4,73914.4,210267.0,177400.3,26101.3,31779.5,0.0,26230.6,
517,0.265,12704.7,14951.8,18060.1,20528.5,16469.8,19564.2,16804.6,16008.6,19216.6,39522.5,34583.1,72463.7,36631.7,14310.0,48841.6,123001.3,66977.6,17866.0,28739.4,0.0,18762.9,
518,0.243,18460.1,20511.7,20459.3,18062.9,26181.5,28613.7,24507.5,25925.2,39412.1,21406.8,31490.4,76960.5,20891.5,17311.0,50973.9,108780.0,68851.0,22882.1,24114.3,0.0,18998.6,
519,0.515,33157.2,43792.0,54481.7,49436.6,36677.4,45712.1,43745.4,24042.8,30924.2,51187.7,26033.3,107817.6,45781.0,30348.7,38944.6,117577.1,128772.2,34977.7,40914.0,0.0,30040.3,
520,0.776,7647.8,11437.8,17328.2,20537.5,12221.5,16003.6,19437.2,8505.8,18138.3,26507.8,15090.8,76724.9,42716.2,6419.8,20587.0,61074.5,85458.5,24372.4,23206.6,0.0,8711.9,
521,0.199,16676.2,24668.6,26602.9,19270.1,23777.4,30852.4,28257.6,9559.4,16159.6,39301.2,24235.6,188748.6,51559.6,6530.9,36030.6,188066.9,241937.3,11765.4,27987.2,0.0,23437.0,
522,0.364,11860.7,18675.2,23937.0,22334.5,19002.3,22844.7,23565.2,21365.5,34225.5,30891.3,21516.2,164873.3,66243.2,13773.2,47137.0,87909.9,96342.7,26011.7,31979.7,0.0,27172.0,
523,0.268,14420.9,27900.5,38945.1,35253.7,24653.4,34707.3,36984.1,16554.0,33499.4,24651.9,24067.5,192115.9,63285.4,8471.1,56654.6,139311.1,93875.3,31629.9,37327.8,0.0,20989.7,
524,0.291,27445.0,48641.5,56130.6,43001.7,47828.8,59395.6,59521.2,33776.0,43538.3,48153.0,53086.2,177096.6,60089.5,26154.3,75489.5,153576.7,130035.3,32229.2,36886.1,0.0,19023.8,
525,0.245,17293.8,20197.0,24371.6,22839.9,20131.9,27698.3,25916.3,13135.9,17268.7,30461.5,15569.8,104839.3,42568.5,9719.0,35447.5,97750.2,73905.2,19694.3,35138.1,0.0,23508.7,
526,0.181,10080.5,15550.0,17313.8,10393.3,12767.8,18983.8,15985.9,10813.5,16707.2,35494.3,29191.6,111968.1,51073.2,9188.0,44099.4,137328.8,171432.7,9626.1,12345.1,0.0,17390.3,
527,0.256,21383.7,23718.9,22333.3,16610.8,26426.3,25927.3,18858.7,25980.8,28575.9,41251.1,26704.1,158522.2,92315.5,21730.3,52628.6,141993.0,178884.6,27327.7,24920.4,0.0,21979.5,
528,0.203,8082.1,13554.2,12687.3,11745.1,10734.3,14015.4,13320.0,5591.6,11232.5,31710.6,27950.3,192364.1,72374.4,6426.9,49267.4,195841.0,195759.2,11688.0,15107.2,0.0,13199.0,
529,0.213,15471.7,14175.0,17517.9,19357.0,14812.3,14038.3,15902.0,24883.9,24821.5,51175.8,42201.9,239138.0,119056.8,20468.7,83019.3,187231.3,273810.1,22290.6,30393.1,0.0,21989.3,
530,0.429,23269.6,23966.8,21881.1,17156.5,22057.9,22618.0,20797.8,14712.3,20012.0,39489.4,12709.3,64180.0,46454.3,10838.7,12769.3,63279.9,168979.6,17460.6,18914.6,0.0,31572.8,
531,0.716,25493.9,32893.7,33993.7,32178.5,36926.9,46144.9,40925.7,31710.1,56390.4,60685.0,54946.5,182509.9,91288.8,23573.0,64637.2,174532.6,208022.3,46178.7,40396.8,0.0,37730.3,
532,0.755,17831.3,23940.8,21513.8,22658.4,25916.0,27521.5,27994.4,31602.0,50358.3,38595.8,37185.1,256901.4,107577.7,19182.7,76992.5,213803.4,259354.4,41464.4,30747.5,0.0,26596.6,
533,0.256,12366.8,14387.1,16612.1,19437.9,16627.3,21561.2,24117.0,14709.3,31738.3,63562.7,33201.1,177083.6,97397.3,15905.3,45194.6,138698.4,256918.0,33714.6,25106.2,0.0,43695.8,
534,0.28,31551.2,36444.5,29356.3,21423.5,31090.5,33260.5,30154.1,28060.5,37091.5,20152.4,73817.3,134322.5,39741.5,27490.8,82135.8,232871.7,97068.1,22474.1,12472.0,0.0,37216.0,
535,0.21,10597.1,15125.0,21321.6,22182.2,15274.4,21266.3,23842.4,12584.8,24993.7,18387.8,28700.7,39062.8,20901.2,7160.5,36717.2,144255.7,40580.8,18939.0,19537.7,0.0,16712.6,
536,4.804,24009.3,31692.0,34508.9,26468.1,29795.7,33651.5,31550.8,24822.1,25832.8,64203.6,70331.0,209503.3,70437.9,28449.2,93822.6,247250.6,237768.0,23356.2,39966.9,0.0,30642.2,
537,1.707,19476.3,26337.6,32762.4,28995.3,30132.0,37118.1,37061.2,32549.9,49509.4,37268.4,39790.1,290203.7,92556.3,21680.0,99693.5,256519.7,240116.9,42036.4,28403.7,0.0,15141.0,
538,0.497,13895.6,21585.5,30539.7,26584.9,26662.2,33415.6,36315.0,29007.0,53473.9,79028.0,41654.9,162298.9,92656.5,10169.5,80459.6,208621.1,195601.2,48525.3,47421.0,0.0,16673.9,
539,0.168,13393.7,23512.1,33876.9,29759.7,22074.4,29616.8,31559.8,17762.6,20144.4,31255.0,34286.2,110942.8,34959.5,15545.8,52336.2,165820.2,126465.0,20225.4,22593.2,0.0,18131.4,
540,0.297,11104.0,17569.0,27243.3,22974.8,12447.9,20706.0,22231.9,15508.6,15507.3,20533.3,38322.3,49299.6,11130.9,17498.3,46528.9,116213.5,44156.4,13533.9,21762.5,0.0,20974.9,
541,0.456,11172.1,9194.8,13843.7,18813.1,12515.7,14435.3,15085.6,15864.7,19186.6,17227.9,11045.8,19616.0,17229.7,15190.5,18894.4,19829.7,18954.8,17273.0,21314.6,0.0,25837.3,
542,0.237,11219.9,14570.3,19381.8,24146.1,20006.7,24704.8,24313.2,25173.9,39410.6,17912.1,21724.4,33433.0,20493.6,22775.2,27272.8,32497.0,22970.4,25845.8,33793.6,0.0,18081.0,
543,0.349,8772.5,8840.8,6244.8,6748.9,8937.1,7576.7,5506.0,8707.2,6880.3,16420.2,13969.1,19090.6,10031.9,13892.2,12690.5,34496.2,27958.1,6013.6,9571.4,0.0,15835.2,
544,0.294,6353.2,8031.5,14471.4,12067.3,8422.7,11751.3,13958.3,6073.7,11563.4,17439.8,11555.2,54421.2,23739.2,3736.6,14995.4,85784.1,67140.2,11947.5,10129.4,0.0,19650.0,
545,0.19,7366.1,9670.4,14454.6,14433.4,9190.1,11194.6,12379.4,8871.3,12598.0,9030.6,8684.2,18173.9,10483.1,9203.0,11197.5,26069.4,16590.7,12015.0,13964.5,0.0,15781.9,
546,0.28,9346.4,10244.7,12041.2,13022.0,11361.8,13047.1,12644.2,12064.7,18147.4,48309.7,24479.0,123108.3,57857.6,13990.4,39160.9,83620.2,168241.3,15885.9,24945.0,0.0,14685.1,
547,0.294,31610.3,43908.7,49458.6,43632.4,44557.2,53038.9,52026.1,29706.1,52143.3,41569.0,27108.6,141711.6,64392.4,21198.4,36312.7,109832.0,146129.8,42910.9,37624.8,0.0,54089.5,
548,0.2,6203.2,11001.5,14714.6,17833.3,9184.0,12636.6,16531.1,7062.7,11383.6,39472.7,24095.2,68931.5,31614.8,8066.0,31945.9,90012.2,106076.3,16481.1,31995.9,0.0,19581.9,
549,0.387,17727.8,24674.1,31537.5,29484.2,24458.5,29687.0,30463.5,25108.5,31418.7,23074.1,48486.1,122375.0,47214.3,23187.3,73064.7,200907.0,107344.3,29658.4,25941.4,0.0,39208.7,
550,0.372,18166.7,19650.6,25139.8,33165.9,19271.4,22764.7,25411.6,20715.8,26639.2,39603.8,15852.2,60360.7,37946.2,13439.0,27760.2,67375.7,68840.6,31424.5,33304.0,0.0,35763.7,
551,0.378,12941.0,23463.9,24624.2,20294.3,22098.0,30116.3,27769.7,20624.2,32385.5,47817.7,41705.0,109226.9,59029.8,11960.2,60638.8,144978.8,117940.2,28616.7,20622.0,0.0,28553.3,
552,0.222,12020.9,13705.4,15772.2,15519.1,13356.5,14732.0,15809.3,15530.8,16900.2,32904.9,24096.4,91313.5,27053.0,12274.8,43917.0,97763.3,55508.7,16459.3,33849.5,0.0,32395.5,
553,0.207,9663.2,14378.8,20907.7,20554.8,20462.8,25007.3,23451.6,19659.1,25973.6,14655.2,15455.4,69158.6,21837.8,13061.7,32307.7,73310.4,46437.1,20099.1,15664.0,0.0,13898.3,
554,0.221,19211.5,33322.4,35695.0,29470.5,37272.8,47136.3,43534.4,28339.2,56959.4,30411.8,25184.3,144449.1,75235.5,13299.4,54295.0,131023.3,126692.7,47893.5,25393.1,0.0,27977.4,
555,0.28,20113.9,19786.7,17225.8,14386.5,17481.3,16980.9,13948.8,19505.9,13936.0,22523.6,31067.6,82171.7,38642.4,20053.9,52003.3,86404.6,64149.2,11114.8,11359.3,0.0,52883.5,
556,0.247,19731.8,26978.0,27548.2,33003.0,24140.4,25116.2,26014.0,13590.2,25481.0,84146.8,21629.8,135403.6,88882.8,9564.2,31792.3,100050.0,201979.9,28354.8,46095.5,0.0,53457.8,
557,0.228,18541.5,22853.8,24767.5,25061.5,22786.3,27203.7,29229.1,22530.1,35409.8,27129.0,10357.2,29669.5,21726.1,11377.3,14579.9,23443.3,22084.4,26101.8,27654.2,0.0,28665.5,
558,0.268,3113.5,6331.4,10084.4,10777.5,7605.7,10470.0,12230.9,6200.3,15059.5,15420.1,8729.7,56049.9,30692.3,3052.1,11914.9,40050.8,70087.1,8892.3,20667.1,0.0,16744.6,
559,0.346,12475.4,13967.5,15474.5,14038.0,16029.0,19992.6,18778.6,13518.2,23066.0,27810.7,17127.9,78106.0,39383.6,9220.2,27163.5,46457.1,64985.3,17211.1,18599.7,0.0,25773.9,
560,0.329,14841.7,20357.4,28911.3,35772.1,18642.7,24943.4,28679.5,20151.4,24421.9,45540.3,24433.5,150955.3,56115.8,13358.1,60954.2,104118.5,124642.4,26935.5,41580.1,0.0,29398.9,
561,0.222,15410.0,23321.5,29539.3,31955.0,22887.3,26697.1,28251.4,17311.9,20180.3,22608.8,23625.9,115708.6,34652.5,13068.8,35020.4,102877.0,76700.4,22738.8,38465.8,0.0,42669.2,
562,0.212,6869.3,11050.0,18782.9,21995.4,14450.9,17894.0,21693.5,21495.3,25547.6,30840.4,12240.3,58305.8,31110.4,11503.6,35049.5,59162.5,66132.1,26370.0,27222.6,0.0,14426.5,
563,0.404,11327.6,24002.1,28484.5,24617.2,21985.1,27449.1,26246.9,16118.6,30904.8,34036.1,31282.5,88408.1,41433.0,11071.2,38338.4,130763.7,122222.3,24214.5,21568.8,0.0,12875.4,
564,0.235,20384.0,23911.7,22680.8,19138.4,24443.5,26081.2,21225.8,16456.6,19703.4,28328.2,37646.0,140284.0,44967.7,16749.1,40369.6,133330.7,158169.2,16489.1,16499.0,0.0,24903.9,
565,0.37,17694.3,23762.3,25971.1,23367.0,25605.9,28870.7,28180.2,20404.1,37377.7,51626.6,17476.7,157141.0,68532.8,12821.2,40624.2,96614.8,145479.6,28188.1,38720.8,0.0,23927.4,
566,0.316,14609.1,17827.8,21740.6,17576.6,16478.0,20531.4,17483.1,12960.2,18009.3,55334.5,10697.8,184519.1,104109.2,10061.8,25266.0,67500.7,219095.3,14778.6,20439.9,0.0,14784.5,
567,0.208,11545.1,18222.0,20447.0,16925.1,19337.9,23643.3,20710.4,11186.9,22281.7,35945.8,7054.9,72470.5,50251.0,8057.0,10970.7,19636.6,91811.1,17588.3,22261.6,0.0,20669.5,
568,0.211,17984.5,27345.1,31138.3,26221.5,27866.0,34008.3,33031.9,25067.0,35299.0,27308.5,14098.3,96629.1,49740.9,15516.0,28256.4,61742.3,82280.0,33357.9,40125.9,0.0,22975.9,
569,0.573,7115.3,13593.9,12517.7,7951.9,12646.5,15027.0,14029.5,10183.6,19328.0,30903.8,15222.6,149995.9,64796.4,7422.8,31840.7,105547.1,188003.1,14871.9,9970.8,0.0,10635.4,
570,0.509,14971.6,19759.6,26052.3,22618.2,20031.7,22753.6,24582.6,17296.6,23040.4,36945.5,25077.3,105355.9,36176.8,16005.2,36908.1,85284.7,96240.3,18234.7,21250.9,0.0,25937.7,
571,1.003,18685.2,16044.8,22311.0,25235.4,17145.9,20644.2,24609.0,17412.9,26133.1,35295.2,31670.4,99880.0,44151.3,17918.7,37732.9,145479.5,69054.9,28902.4,27612.9,0.0,21507.6,
572,0.633,25378.8,43980.6,45793.7,37734.8,43223.4,50545.5,50287.1,30033.5,60089.4,23074.0,27739.9,65955.6,43248.9,16659.1,32493.1,166326.4,74472.7,47305.4,33408.4,0.0,37679.1,
573,0.35,20341.3,33654.7,38081.1,35846.0,36008.5,43431.0,40211.7,21207.9,34433.7,23058.2,17851.3,67614.8,23455.2,16741.2,25553.7,122878.1,142319.4,28660.3,27853.7,0.0,28225.5,
574,0.258,12399.8,15282.6,13511.3,14890.4,15730.7,17998.5,16103.6,13914.5,19055.3,39669.6,20056.0,84964.4,34177.6,12433.7,30782.2,119487.2,134782.4,13414.6,15819.4,0.0,28134.2,
575,0.19,14748.0,15933.4,17624.6,16720.4,17602.5,20392.7,18147.7,14095.4,16485.6,15612.1,32278.3,32471.8,10360.4,13154.9,30886.8,125411.6,47244.2,13196.5,17236.5,0.0,23030.1,
576,0.269,25076.2,22588.6,20499.2,16498.2,24049.6,25507.3,21911.8,20558.1,26031.8,6913.5,18689.4,46172.1,16936.0,21445.2,23475.3,49103.2,25580.2,18739.8,10703.7,0.0,20471.0,
577,0.184,7829.7,10822.8,12879.9,11051.0,10891.5,13766.3,11863.2,6745.1,8406.9,8231.7,6242.8,12519.0,6892.3,4975.5,4563.8,12258.0,15321.2,6075.3,9159.1,0.0,29293.8,
578,0.203,9497.6,14352.6,18040.8,20533.4,14998.1,18290.3,19395.5,14357.1,17511.9,27328.6,16587.5,32484.3,23182.1,12439.0,19752.6,51833.6,40017.0,19667.7,28509.6,0.0,31214.3,
579,0.205,6448.4,8872.9,10089.5,10172.6,8666.1,9007.5,9822.6,7170.2,10020.0,14147.9,10513.0,11791.0,11777.6,9407.6,7846.3,12908.6,14929.8,8827.7,11117.6,0.0,27050.2,
580,0.195,6238.0,8360.2,10955.7,12058.5,10249.3,13659.1,13553.4,13267.3,18734.0,15766.0,9315.3,13190.3,14147.9,10230.9,11761.9,10394.9,11714.5,15094.4,16756.9,0.0,22374.8,
581,0.233,12620.2,12134.8,17481.4,16854.2,12112.7,13745.9,16197.5,15762.3,15614.3,21259.0,10940.4,12838.4,16224.3,13796.7,12167.5,7230.3,12268.6,19016.3,28065.9,0.0,19036.4,
582,0.192,7397.2,7982.2,11916.7,12725.5,11072.9,13521.8,15781.6,11132.6,16356.6,13184.8,7798.4,12986.7,14213.3,9051.8,9340.5,11093.7,12156.1,12916.7,13171.9,0.0,24197.3,
583,0.25,14940.2,16872.2,21856.2,27382.4,16685.1,20744.7,18910.0,17680.3,20443.4,20510.7,19445.9,23816.9,17643.3,16067.7,20269.6,26201.0,22502.2,20273.4,38359.9,0.0,15663.2,
584,0.209,6196.5,9263.9,12813.4,12858.3,11021.1,10956.3,13773.1,11674.5,12359.7,15020.6,9917.6,9389.5,13582.1,8874.1,10359.4,8290.7,9880.3,14064.9,21871.8,0.0,14388.4,
585,0.268,12872.5,15833.5,19416.8,24914.1,16339.8,18642.3,20267.7,16721.7,20052.5,22564.7,13850.1,26973.7,20524.9,11616.0,17010.7,25901.1,27492.5,20343.5,25610.3,0.0,22310.9,
586,0.329,5953.1,6611.6,6776.2,6761.8,7388.5,8344.7,9033.4,9134.7,12565.1,9415.8,8741.5,16659.7,12537.5,7994.8,11075.8,25946.0,16663.6,10259.7,10256.3,0.0,17466.9,very fine gray and purple washes
587,0.243,6684.2,8099.6,9264.9,9155.1,6800.4,8001.6,8118.4,3722.4,8104.8,12474.2,4362.2,9307.5,10226.1,4673.3,4342.9,9214.0,15890.7,9042.1,12508.2,0.0,17659.6,
588,0.256,8783.4,10624.7,12876.0,15940.1,10718.9,12406.4,11065.5,8248.9,7848.0,6190.2,5077.3,7192.8,6051.9,10660.7,6251.5,5374.7,7202.2,6321.9,9324.6,0.0,18258.4,
589,0.388,13158.1,16018.4,15538.1,15657.8,20078.7,19335.1,17457.9,15432.9,21343.9,14266.3,8241.9,19033.3,19255.4,7865.7,13163.4,19788.6,18975.5,26112.3,11657.8,0.0,24957.8,
590,0.226,7009.5,8298.1,11065.8,8564.8,9837.7,9971.9,9542.8,11248.7,11401.7,9366.7,6699.8,12270.4,11325.7,6899.3,10475.7,9289.5,14543.0,12693.3,7975.2,0.0,19538.5,
591,0.391,14044.5,15058.1,16015.0,18294.7,17453.0,16536.5,19291.8,19675.9,20215.5,22842.9,20862.0,20131.1,20423.1,19824.3,19456.5,21484.1,19498.2,25233.5,20159.7,0.0,37658.7,
592,0.275,10476.7,9403.3,10079.4,11559.0,12005.0,12010.2,12080.5,14496.7,14166.3,14792.5,15432.8,17725.7,17110.8,11883.8,15032.6,19530.4,18848.8,15237.6,13793.4,0.0,16762.9,
593,0.352,28184.0,33988.9,35560.1,31566.1,29039.6,30632.8,30890.1,24948.8,24897.9,36666.1,28251.6,31208.9,32542.7,22874.3,25055.7,42435.6,41130.8,31978.6,36540.2,0.0,28397.9,
594,0.244,5527.6,8278.3,9277.0,8829.3,8429.6,8728.0,7328.2,8347.1,10123.2,9218.5,7367.4,16809.8,9277.7,5626.5,13047.0,29575.7,11718.2,7467.5,8877.4,0.0,15330.1,
595,0.29,8576.9,11316.4,14898.4,14566.4,16406.7,12931.7,17798.6,10768.9,12227.5,15560.6,7532.6,22590.6,20654.6,11168.7,13942.7,28543.6,31209.4,27894.9,14860.0,0.0,23333.3,
596,0.313,12208.4,16031.1,15344.7,16912.1,15732.2,16188.7,17691.7,12564.6,16305.9,12559.9,18048.4,14773.4,13688.6,15661.2,12182.6,12092.7,11823.6,19280.3,14997.0,0.0,30838.0,
597,0.266,9011.8,14309.6,18802.4,18800.0,20250.6,26494.3,24134.6,15604.5,28880.6,16322.6,14285.3,21111.0,16633.5,10566.3,15319.3,24683.3,17895.9,20505.1,19762.2,0.0,17624.6,
598,0.208,5933.6,9332.4,12099.0,15356.5,8394.4,11451.9,13394.0,7406.4,12339.9,28138.9,10186.3,17666.0,19006.7,9196.5,9501.2,13536.3,20605.7,17343.9,31438.4,0.0,25241.7,
599,0.228,12217.4,18792.9,26702.2,28439.1,17770.1,25447.8,26768.3,16937.6,23328.1,25660.0,17396.1,21918.9,27461.7,13703.5,17715.6,18416.1,22433.8,27742.6,27506.5,0.0,26870.3,
600,0.232,12660.1,18210.0,20588.3,20164.1,16076.1,17038.1,19638.0,18289.1,18522.1,23687.8,13399.7,21828.8,19178.8,10413.1,16352.2,17444.0,23423.5,19625.6,25676.5,0.0,40115.0,
601,0.243,8276.5,8793.7,8580.5,8433.3,6894.5,7026.2,8089.1,6484.6,8951.2,7895.4,8630.1,7642.3,7264.8,10913.2,7206.7,8221.7,6930.5,10071.0,10906.0,0.0,23738.7,
602,0.233,13409.0,12015.9,10469.9,10066.1,10529.7,10209.7,9933.7,12425.2,13788.8,13443.1,18039.1,16932.1,13715.0,16978.6,15535.8,19675.7,16437.1,11056.0,14963.2,0.0,53499.7,
603,0.413,5589.8,4968.9,6457.5,12363.5,6402.0,7572.9,8259.3,12690.1,7494.5,10732.7,10958.2,14618.6,10539.5,7586.2,12050.0,16978.6,12401.5,12441.9,19207.4,0.0,13308.4,
604,0.529,23231.3,26964.3,28750.8,24773.8,31377.3,28825.6,28024.9,33085.4,28180.2,28099.6,29417.6,35946.9,26317.0,26473.2,34959.8,47140.2,38819.3,39102.3,31131.4,0.0,47002.5,purple / a lot of finger patterns moving fast
605,0.421,13251.3,16381.3,13694.9,16193.3,14599.4,14262.2,14356.8,11199.1,12377.1,12768.5,11080.1,14182.1,12396.6,9698.2,10685.3,17096.3,14010.5,13296.0,17181.5,0.0,20214.3,
606,0.272,9781.7,8351.5,9584.0,7775.2,7752.8,7656.8,8171.8,5852.3,6413.5,8084.9,3720.4,5969.4,5883.2,5378.3,4312.9,5109.3,7645.4,7669.8,9532.4,0.0,25002.5,
607,0.465,6155.8,9208.8,10989.5,12455.1,7699.5,8155.3,11146.1,6820.2,10912.8,12983.4,4985.7,12818.0,11941.3,4383.9,5815.5,7797.9,12526.9,11136.7,16097.2,0.0,11901.3,
608,0.357,18077.1,19442.2,21108.6,22217.3,21898.9,21981.5,23230.6,23943.1,22876.7,17967.6,19775.8,23574.5,18346.9,15325.0,20512.5,24168.2,20393.4,22298.9,21162.3,0.0,27994.9,
609,0.265,5746.2,6542.3,7057.5,8022.4,6422.9,7521.7,8243.1,6942.7,7593.3,8260.5,8527.4,11913.5,10805.7,6787.9,9206.0,17948.2,11410.3,8575.1,11531.9,0.0,13196.6,
610,0.256,4623.8,5069.5,8763.5,10732.7,6183.1,9301.7,10397.7,7710.8,10961.0,6726.1,6253.7,8175.1,7603.0,6794.3,7371.2,7701.1,6310.8,7392.3,12328.1,0.0,14583.2,
611,0.349,20441.4,18313.8,22811.3,23016.3,21031.9,24132.5,24562.8,26686.7,26390.2,21919.6,28975.2,36651.9,26507.4,22939.8,33059.7,41595.8,35857.5,24723.2,21477.3,0.0,27398.3,
612,0.242,11387.6,11903.3,14679.2,16348.4,14133.9,17553.6,18196.9,15126.4,20183.6,16092.0,12981.1,34658.2,16896.0,10972.9,13526.2,16976.7,23872.5,17335.1,17098.5,0.0,32423.3,
613,0.293,13972.1,18719.4,20183.7,20470.1,19104.8,20595.4,18084.5,21285.4,21067.4,21924.5,22183.9,29878.5,19413.5,19416.6,24856.9,30475.0,23639.5,17070.3,22065.6,0.0,26078.4,
614,0.216,6355.7,7870.8,9619.4,9214.3,8867.0,11737.9,11987.9,8219.5,15415.7,16865.5,13148.2,25604.7,23035.7,12994.1,9742.0,20119.6,27305.7,14425.2,14493.8,0.0,21896.1,
615,0.298,15796.7,21761.8,23453.3,21341.3,23741.2,25920.1,27267.6,19155.7,25629.5,25574.6,18935.8,35749.9,28664.7,15387.9,21232.2,32990.1,40093.1,25295.7,20251.1,0.0,20857.2,
616,0.244,12627.8,12838.9,15852.4,15503.9,14795.4,17412.3,19514.8,11830.5,17878.2,16910.6,12670.3,25549.0,21526.2,11131.9,14669.0,27830.9,26093.8,19020.2,16800.3,0.0,34665.0,
617,0.236,9163.1,14326.9,16695.6,12814.2,14380.7,14657.6,14842.6,14159.9,14792.1,13788.1,9317.6,9050.6,11957.7,7584.7,12110.4,13520.7,14019.7,15478.8,19787.2,0.0,24848.5,
618,0.304,26439.0,30787.2,23830.3,16868.3,28459.5,26813.3,21425.2,25805.6,24786.7,16061.5,25654.8,21396.7,13712.1,30998.6,21487.5,19511.2,17714.1,18154.2,21989.3,0.0,22189.9,
619,0.223,5972.3,8461.0,9238.0,9382.4,8073.1,8889.3,9272.9,10191.8,14606.0,34969.6,19173.6,122716.8,52973.5,5260.1,35219.1,115860.6,147108.5,15504.1,17551.7,0.0,12137.8,
620,0.241,14411.3,22447.6,24198.9,19293.7,22598.1,25530.9,25699.5,16126.4,33162.7,35535.5,31155.6,148161.1,53669.9,5395.3,37824.1,168910.4,131377.2,27859.8,21990.2,0.0,25199.3,
621,0.26,19354.6,22111.0,20657.9,18572.2,21701.5,22534.7,21587.6,16171.1,23809.0,23306.7,22068.9,23378.3,20343.0,17304.2,18292.4,24530.3,18568.4,19844.3,25197.4,0.0,19174.5,
622,0.308,16205.6,23189.4,24242.9,23954.2,22910.3,26692.0,26281.6,23621.7,29580.9,27030.9,25840.5,38001.3,31940.1,20257.8,27992.9,29480.6,21852.6,27381.0,30411.8,0.0,28366.0,
623,0.268,20064.0,22241.1,25193.0,27004.8,23852.2,27100.5,28852.0,30788.4,40577.5,31081.1,29689.2,124305.6,51629.2,23375.4,52369.0,72277.2,63828.1,38027.0,27532.3,0.0,29985.2,
624,0.433,12185.4,15272.1,18499.3,17355.0,16556.3,19088.0,21982.2,25713.7,48329.1,44392.8,26902.0,261933.9,97341.3,14386.3,63867.0,143157.9,200591.3,38092.3,27518.2,0.0,26981.2,
625,0.205,12785.9,17485.3,19686.1,14772.3,22716.8,29386.5,27858.0,17202.1,34677.6,22617.9,34698.0,112486.8,25318.8,10917.5,52387.8,212845.9,102707.4,21792.8,17950.9,0.0,11855.0,
626,0.236,4486.3,5952.1,12010.9,13052.7,7889.8,12198.5,15205.4,10155.3,14696.6,17554.9,13422.5,26874.4,15252.5,12537.8,20663.7,27648.1,20603.6,15192.0,24022.8,0.0,11860.8,
627,0.262,18140.2,21994.7,22325.4,18926.3,22010.8,24591.7,22923.7,22441.4,27578.0,26702.6,33707.8,178874.3,43898.4,16735.1,63954.4,198814.1,150414.5,18443.4,23531.7,0.0,26099.9,
628,0.26,9492.5,15592.1,18695.7,21501.5,12914.3,19928.8,18273.4,11514.4,24083.2,17626.9,27904.7,82157.3,28270.5,11005.8,25948.8,91930.4,85390.6,19463.1,18792.3,0.0,30303.7,
629,0.391,32217.2,39727.4,44558.4,50027.9,40010.1,49027.8,47591.6,32871.6,48840.4,55007.5,37491.8,54471.5,72148.4,31798.4,33444.6,46102.3,62876.3,61718.5,60182.1,0.0,32691.0,
630,0.227,7184.7,12062.6,16936.2,17553.4,12776.7,15312.9,17418.5,13217.3,22071.4,29679.2,13855.0,33744.8,36932.0,10047.1,16123.6,31898.0,43636.7,24568.5,24905.9,0.0,24866.2,
631,0.206,8144.9,10860.8,10931.0,10749.3,12381.5,13107.1,11621.4,6877.8,11206.5,12072.1,9700.8,12832.6,13976.7,9320.7,7206.8,6467.9,9124.1,13198.1,18698.6,0.0,28210.5,
632,0.257,7031.6,9298.7,10971.0,11906.0,9723.6,10374.2,13347.5,11387.8,13722.2,15761.9,13481.3,19376.9,20825.2,11675.4,16773.7,20475.1,19347.7,15632.3,13484.2,0.0,26679.7,
633,0.237,6867.6,10833.8,18791.7,19485.7,10763.2,16961.3,18200.0,8514.6,17002.0,22958.0,15078.5,44570.0,28463.6,8887.0,15228.3,55836.4,70504.4,18444.7,20456.2,0.0,26122.1,
634,0.195,5591.3,5415.3,8413.5,10075.8,4568.5,5121.6,7492.9,5353.9,9761.0,27498.9,10134.1,30235.1,20178.9,5701.6,12048.6,50784.5,47888.8,12470.2,24813.3,0.0,22284.9,
635,0.214,11973.2,13862.9,18379.1,21864.0,17795.9,21460.9,23315.1,18622.5,26252.8,26850.9,10225.4,38371.2,33493.0,11511.1,10793.3,29565.6,28204.6,25886.9,32287.8,0.0,18279.7,
636,0.235,14429.6,17416.1,17346.6,13088.5,19757.6,21218.3,19489.9,20339.9,28358.3,13119.5,17866.3,85006.6,26437.1,12321.7,28222.8,63949.1,46802.8,19508.7,13571.7,0.0,24790.2,
637,0.213,13309.6,16058.2,13952.9,11464.1,15182.1,15318.5,15332.7,15024.9,18181.2,11377.9,8924.3,17023.4,11969.5,8076.7,9660.0,14730.8,23107.4,12825.8,12717.1,0.0,16636.2,
638,0.18,4794.0,5309.0,8756.1,12792.0,9283.2,10569.2,13493.0,14439.3,21197.9,22865.3,14780.4,55014.6,33746.7,12571.5,23501.0,46954.8,48772.4,21382.7,26749.4,0.0,9592.1,
639,0.202,11898.2,12369.6,14524.0,21984.2,15330.1,18533.9,23218.8,20416.0,34590.0,58857.5,22495.8,73700.6,92233.3,15269.7,31228.6,46295.0,63516.9,49670.1,45443.4,0.0,29108.1,
640,0.187,4431.9,5647.7,8565.6,8461.5,6399.5,7843.2,7850.0,6459.5,7791.5,15359.2,7910.4,12239.8,12500.9,5663.3,7532.7,28021.8,17471.8,10664.0,18915.2,0.0,16583.4,
641,0.233,13364.7,15040.0,16224.8,18163.3,17413.2,22258.0,24656.2,23180.6,25429.7,19971.0,34923.9,36118.5,29722.2,25064.1,31727.9,35748.4,30372.1,25797.0,21789.3,0.0,31559.4,
642,0.23,13326.3,16826.0,17502.0,18376.9,15858.2,17597.8,16576.9,14926.6,16940.8,19855.8,12278.0,17620.3,27120.3,11037.9,13449.8,14844.7,20334.3,21413.8,22696.6,0.0,27601.0,
643,0.177,8425.5,12489.5,13203.0,11703.9,11719.0,13459.5,15053.0,10207.4,19520.0,22212.8,10915.6,15902.5,22201.1,9506.4,10387.0,11170.1,19849.3,16947.6,21916.0,0.0,25567.0,
644,0.211,11528.6,11492.9,9420.1,11778.0,11824.1,10787.8,10065.4,12079.4,13914.4,15096.6,7658.8,15213.1,20121.0,8558.2,10421.2,12135.1,18537.6,15205.5,15409.9,0.0,31636.7,
645,0.232,9493.8,10804.2,11855.8,7536.4,13003.0,15212.1,11514.0,9580.3,15434.0,8188.6,6641.5,27332.6,13550.0,6884.7,7807.3,16072.3,23078.1,10215.5,8911.4,0.0,21696.3,
646,0.275,24954.2,28859.6,27296.9,21045.0,31255.7,33589.2,28373.6,25048.2,38947.7,14866.3,28892.0,101212.3,29173.5,22217.4,32837.6,101716.9,69474.1,20474.3,19810.6,0.0,19916.0,
647,0.245,12108.0,16979.9,19850.0,15314.6,15659.2,19619.1,17333.5,12930.7,18029.4,18052.5,21465.2,130732.0,28532.6,7408.0,34874.5,106334.5,95170.4,12974.5,11344.7,0.0,18527.2,
648,0.26,17828.1,17100.8,15530.6,17607.8,16249.9,14588.5,15571.3,16461.7,20109.1,29771.4,18054.4,35262.2,23575.6,23983.8,16181.4,37328.3,45243.3,18036.6,24816.6,0.0,34390.1,
649,0.274,30998.1,30749.7,32899.8,35163.4,34141.6,32799.8,34876.1,36405.9,37594.7,34306.3,33497.8,34067.1,33452.6,34143.7,32336.7,48484.5,39971.9,36402.9,34321.8,0.0,50166.2,
650,0.297,13459.9,16685.7,19709.8,22163.2,18045.0,20007.6,21396.8,14745.8,17531.0,16776.0,13588.1,13736.6,17142.1,11091.9,12361.5,25709.3,12706.8,20419.0,19162.4,0.0,30203.9,
651,0.459,19735.7,24063.7,25003.8,20674.7,22415.4,24078.3,23301.6,22094.1,23784.2,19199.5,19658.0,20679.2,23278.8,20812.8,20376.3,19083.1,17762.9,23075.5,24200.5,0.0,26718.8,
652,0.204,11372.3,17536.3,15646.9,16475.5,15202.9,16215.7,14702.0,12027.1,12608.5,29029.7,12335.7,25998.4,17496.6,8591.5,10061.7,41691.7,39418.5,13610.0,22365.3,0.0,25026.7,
653,0.26,17042.0,19781.3,21375.5,20741.5,23011.7,25441.9,24943.1,22954.4,31816.1,27663.2,14440.2,56600.3,37256.1,9804.5,26718.6,31978.3,52436.5,28120.1,22096.8,0.0,28752.4,
654,0.211,13551.8,16725.6,19205.6,19771.1,19495.9,25164.8,25262.5,19209.8,32659.1,21891.0,17128.1,102832.7,40519.1,12975.2,36741.4,81730.3,40818.4,30758.4,31317.3,0.0,28086.4,
655,0.219,16976.4,15090.4,14352.3,13921.0,20468.7,19344.4,17269.6,25072.0,26102.4,19168.1,16326.6,31687.8,21034.2,22441.3,24388.9,22908.8,18327.1,18461.8,21367.1,0.0,46551.8,
656,0.232,8720.7,11144.4,13201.7,18342.4,8709.8,11313.9,13890.0,6861.5,9574.9,17006.3,9176.3,17075.1,16176.9,8288.6,9676.8,20010.7,18671.5,15840.9,17591.5,0.0,43058.9,
657,0.204,6508.9,7714.3,10647.6,10917.1,11488.0,12245.8,12370.8,12621.3,16791.7,16229.6,6756.1,24765.0,18280.6,7164.1,14054.3,23680.3,22319.3,14787.7,19857.4,0.0,22299.7,
658,0.315,11700.9,9073.5,7906.2,6141.2,10628.7,10825.6,8643.4,11250.1,10924.0,8703.0,10397.0,9708.4,8886.9,12234.2,8591.3,10994.8,7257.5,7985.4,9873.0,0.0,24696.4,
659,0.299,10729.8,11926.7,15823.2,16962.3,11215.8,11559.0,15476.5,12603.2,14507.1,25491.4,11532.9,21524.1,23507.2,10340.9,13943.7,17868.5,25270.6,18864.2,26512.8,0.0,17510.9,
660,13.4,184656.1,84843.3,63346.1,818314.5,22328.7,14226.3,22842.9,17131.9,23364.7,16989.8,12030.5,20269.8,12242.5,17505.7,15715.7,17622.6,16227.2,14963.2,25178.4,0.0,15997.7,
661,38.032,68120.0,24677.3,31294.9,168437.2,13842.1,17615.0,17737.7,10096.7,16915.6,9867.5,14122.1,30435.6,11095.2,10346.5,15499.4,65344.4,35571.6,17283.0,18557.0,0.0,10663.4,FRUITION-CALC
662,0.458,9517.7,14112.6,22794.4,18986.6,14114.7,19274.3,21762.6,11901.5,19961.4,13969.0,14568.6,16108.3,14256.2,10424.5,12540.8,16927.5,17011.9,16759.2,18148.0,0.0,27105.4,
663,0.366,7632.6,7997.4,7921.5,5820.4,6531.4,6468.4,6982.3,6943.0,13185.5,15638.3,12216.0,57678.5,19340.1,4763.9,14104.9,36167.2,32713.4,10833.0,7596.8,0.0,20416.2,fruition (no-self)
664,0.334,14584.1,20629.6,18145.1,14592.5,20851.1,23458.1,23859.0,19372.9,42134.6,49373.7,25462.8,185544.9,90969.4,11700.0,42331.9,101814.9,230700.9,36130.6,21552.8,0.0,31009.8,
665,0.236,7461.1,6942.7,5395.4,9963.5,5871.8,6123.3,8411.9,9684.9,18234.1,39513.6,14427.6,174865.4,76042.6,7903.0,32926.9,99216.3,170343.4,18228.7,19309.6,0.0,17034.8,
666,0.217,9021.4,6793.6,9661.9,12353.1,7457.2,8577.8,10034.5,7590.6,9680.1,18826.5,8534.2,49694.9,25045.4,9574.9,10459.2,27751.7,57219.6,11545.7,12654.1,0.0,19053.1,
667,0.309,8830.5,9297.4,12305.4,13922.3,9751.4,10590.2,11620.7,8564.8,11692.8,23283.7,7928.4,24045.8,24588.0,8027.9,11358.9,20634.7,39792.7,15017.6,16402.6,0.0,9123.3,
668,0.235,11653.6,12492.2,11162.8,19201.4,10010.8,11507.1,12732.1,11617.8,13816.6,12269.7,8212.8,44786.4,19899.3,8444.6,13490.1,32770.7,27096.2,17783.8,12819.0,0.0,33767.2,
669,0.227,8602.5,9223.7,8457.3,8284.2,8161.1,8220.9,5620.1,7064.8,8336.6,18036.3,13095.3,69561.7,21506.4,8312.5,15742.3,95616.2,83970.4,9797.6,13962.9,0.0,30758.7,
670,0.234,14489.1,11918.0,11620.8,10233.6,15886.7,13538.3,10770.7,19174.9,17898.4,10555.3,8151.0,15191.7,11994.4,15094.0,11978.5,8956.1,10654.2,11409.0,16751.6,0.0,14478.6,
671,0.273,14559.5,15234.8,15540.0,15806.2,18331.6,17889.0,17119.0,19727.9,19400.4,10815.2,18249.7,23689.7,13597.7,14635.8,21128.0,86201.5,24540.2,14998.3,14827.3,0.0,36812.9,
672,17.343,10839.7,22598.7,19651.5,14045.3,14474.7,17245.0,18412.5,14134.2,22282.5,16698.5,16699.4,44481.3,19039.8,10100.5,18993.7,47632.1,23797.0,16845.2,13513.9,0.0,30568.6,
673,0.588,18790.9,23074.2,25290.0,22828.7,22281.0,25496.6,24509.5,20362.2,28954.6,23358.2,21024.4,82140.2,30614.1,15581.7,28543.6,104867.1,52708.0,26231.3,25411.0,0.0,38424.4,
674,0.436,23806.4,27881.6,25720.1,21920.6,26468.1,28363.8,25234.3,16805.2,22780.1,26787.2,21573.9,129110.4,53316.7,16081.6,35313.6,101201.8,136945.3,19001.5,18520.3,0.0,38173.5,
675,1.499,13954.0,27166.1,33465.5,22695.9,22570.0,29327.5,32255.3,12923.8,26129.9,18961.3,13642.1,81236.4,29951.2,7807.9,20090.0,94197.5,117188.7,19537.6,12409.1,0.0,23511.9,
676,0.276,8456.0,9522.6,8478.4,8154.9,5648.5,7425.5,6342.3,7280.5,9849.7,9551.8,8226.4,26642.5,10768.2,5395.8,10496.5,31471.6,22049.3,6551.1,5457.4,0.0,24014.2,
677,0.248,11731.3,13799.9,14657.8,16144.6,14900.2,16833.3,17444.0,19599.5,35324.4,53420.8,39151.1,268554.1,105686.6,11829.1,72246.3,191453.8,254952.3,26719.8,27495.1,0.0,21846.8,
678,0.347,9313.6,13085.8,14595.2,13229.4,11084.8,13222.5,12770.0,8502.5,9309.8,22605.2,22634.4,93245.6,26512.4,11657.1,39798.5,122081.8,70260.3,9695.2,16327.5,0.0,28337.1,
679,0.263,7954.9,11070.8,16888.6,20089.3,9926.5,13690.8,17738.6,12279.6,21604.0,54799.3,34130.4,185744.0,82496.6,6911.5,65456.9,150124.0,202325.3,25321.3,24491.6,0.0,18387.4,
680,0.239,29774.5,38700.5,45564.2,44720.6,38885.9,45172.1,44457.1,30711.8,47467.3,37398.3,28191.1,153213.9,59056.7,19032.0,48472.6,169186.6,173921.1,44868.2,43532.9,0.0,51429.7,
681,0.443,5759.2,6549.7,8154.0,13418.9,8253.6,10433.6,10359.7,7458.2,13346.7,63425.6,37652.7,143681.3,73080.6,7994.9,46026.2,170640.8,215646.6,19833.2,31545.6,0.0,8643.6,
682,0.437,28210.7,31458.1,32258.2,31408.7,33129.1,33717.8,36032.7,33028.3,39303.7,71859.6,50170.3,142572.6,62642.1,26624.5,67340.4,203467.3,160341.0,38757.3,54813.7,0.0,22392.5,
683,0.235,19359.0,21961.7,19281.6,18473.0,25632.6,28633.6,25987.7,24306.8,31525.7,28340.1,18746.2,100473.4,51655.1,14879.9,29674.7,85192.9,116813.1,25079.3,20277.5,0.0,30606.8,
684,0.421,12492.3,21576.6,25445.0,21707.5,16813.1,21781.5,21148.5,12398.1,12987.1,51945.3,56536.3,129659.2,48954.0,12386.8,66602.5,217324.1,181835.4,13983.9,21341.5,0.0,37814.3,
685,0.251,19245.7,19433.3,17688.1,15733.3,15373.1,17154.1,15817.9,12867.9,11384.6,56715.9,34063.8,88697.2,49290.2,13809.7,34950.9,145908.8,196179.2,16134.1,21793.9,0.0,34399.0,
686,0.212,9179.9,12312.2,11336.2,12751.6,8951.7,11423.3,12233.0,7054.7,16120.6,39906.7,22639.0,66184.8,42231.0,4859.9,30499.0,106941.5,83696.2,17968.4,14306.0,0.0,14121.3,
687,0.192,10123.6,19584.6,26675.2,27685.1,18260.4,24195.2,26448.3,13531.7,21054.5,35517.2,33334.0,53557.5,32384.9,9243.2,34335.7,145830.3,107993.7,17958.7,23280.7,0.0,25210.4,
688,0.323,11816.7,17125.5,21384.4,19403.9,14616.7,16543.7,16078.1,8518.1,11795.5,34101.6,31786.7,150290.2,47640.5,8519.6,44616.5,201254.2,218423.1,10325.5,15913.1,0.0,23779.6,
