Time (s),Var Fp1,F7,Fp1,Fp2,F8,F3,Fz,F4,C3,Cz,P8,P7,Pz,P4,T3,P3,O1,O2,C4,T4,A2,ExG 1,notes
1,0.684,10820.8,23525.1,32298.9,30981.2,15327.5,20380.1,24236.6,17406.4,22177.1,21525.3,12757.1,29005.4,25386.0,11728.3,18585.6,18464.2,22299.3,25922.9,22443.7,0.0,2369866.4,
2,0.495,21511.2,26254.3,30190.5,25247.4,24287.2,26380.7,25391.8,22111.2,28321.1,17100.2,17079.0,21545.9,20792.3,13985.8,17910.5,12465.0,16784.0,24315.2,25558.6,0.0,29108.6,
3,0.527,10486.3,11777.2,11696.7,10922.9,9964.0,10104.2,12211.9,9807.2,9310.8,17674.1,10735.4,10118.0,13218.2,9490.6,8027.1,14960.6,12735.4,12161.4,19720.0,0.0,56587.7,
4,0.368,13912.8,17546.1,22840.5,33327.1,16733.7,21596.9,25058.8,14825.4,18954.2,38911.5,9933.9,24829.0,26840.5,12144.4,13060.3,15601.4,38176.8,27085.4,41513.6,0.0,31594.1,
5,0.439,19785.0,20605.6,20556.0,21714.7,20237.3,19681.3,22603.3,23961.0,27390.7,25771.3,21366.2,34821.9,32604.7,22646.9,25807.9,27786.3,35454.6,26685.7,21933.5,0.0,73570.8,
6,0.771,13061.9,28634.7,35285.8,38457.6,19189.8,27349.8,36013.6,17435.7,25893.5,35983.7,10913.1,30041.1,31591.9,10677.0,21593.6,24464.7,37451.5,32026.5,36475.0,0.0,205158501.4,
7,2.645,24473.4,54312.5,71249.4,130890.2,33155.0,37901.0,86575.2,59080.1,54470.8,77634.8,27245.2,45154.9,54657.8,21854.9,37763.3,41231.0,46849.4,48936.0,78679.4,0.0,21143648863.5,
8,1.499,64387.3,75101.1,91962.6,114666.1,77171.0,101536.3,149134.4,91130.7,131488.8,130621.9,48063.7,100136.3,117981.8,47071.7,71500.1,95511.5,112819.4,97176.2,118810.0,0.0,34212976480.4,
9,0.572,22185.5,28874.3,25491.5,23439.6,21627.3,25402.1,23912.2,25906.4,28087.7,22133.5,11855.2,22839.9,21722.7,11904.8,23813.8,18701.6,27424.8,23877.6,23862.8,0.0,21856530206.9,
10,0.869,19099.5,25210.6,31474.4,52942.4,32777.2,32705.4,36928.2,34176.2,47788.6,62369.3,26386.5,46054.9,54017.1,21272.6,54640.7,38395.8,45204.4,51337.4,64536.8,0.0,4450594799.0,
11,13.109,27886.5,165103.7,151771.0,66479.0,43274.6,52403.1,53402.0,23559.7,33100.3,21913.5,14591.5,24273.9,20513.7,13433.6,21174.8,18259.2,20287.8,36238.6,31716.4,0.0,8529290248.5,
12,23.293,71605.7,278697.6,179248.7,53925.5,79059.0,76095.2,67881.9,47873.4,49564.1,45351.3,25714.1,52334.2,45215.3,24886.3,37183.7,44936.6,53324.8,48138.4,49032.7,0.0,2821670644.6,
13,1.031,12206.4,11961.7,10811.6,14651.6,13483.3,15022.1,15393.4,20935.5,17778.7,16211.9,18219.5,21810.0,19002.7,10743.5,20117.4,20095.9,19599.1,17210.2,16788.7,0.0,568689323.3,
14,0.388,11626.1,13744.3,13549.9,29980.0,17137.2,16533.9,18349.3,21388.6,20366.2,13647.3,13833.0,16765.2,14108.1,15331.3,18453.5,12061.4,17264.8,23509.9,18403.1,0.0,85524170.2,
15,0.853,9386.5,12353.5,15258.8,19214.1,16830.9,18053.3,17611.7,19110.3,21047.1,13659.2,11252.5,19466.1,15455.9,8646.0,20413.6,14354.1,18761.5,25424.6,11594.4,0.0,60599796823.3,
16,2.545,13645.9,46130.8,50024.5,27927.0,17585.1,20430.0,23149.2,17435.5,14371.9,16307.5,16602.9,13007.2,13758.1,10963.1,16380.0,13100.6,14734.6,20212.0,15127.3,0.0,5146553620.9,
17,3.13,15315.7,26073.7,34978.0,34565.4,19224.4,22598.4,27112.5,17535.3,30245.7,31858.6,16113.4,23388.0,27982.7,16425.9,18593.8,14221.5,21628.3,40642.3,37734.2,0.0,138823839156.5,
18,1.502,12976.6,18162.1,23995.6,30502.2,21511.6,28661.3,29898.1,16744.4,31647.5,38147.8,19791.9,34212.0,38981.6,11404.0,20609.7,26972.1,28774.4,35686.3,42659.9,0.0,39231.5,
19,0.206,13897.3,13323.8,14490.5,17044.9,13318.8,15593.1,17620.4,12976.1,17897.7,17405.2,17893.1,22861.0,18983.5,15657.9,18752.0,17904.7,19351.4,18742.3,25546.1,0.0,33314.5,
20,0.201,15146.8,14723.2,16119.5,17231.2,17301.4,17043.5,15674.4,20345.1,18327.7,17476.5,28181.3,18869.6,19295.5,17879.8,21227.2,19456.4,15132.0,19362.5,23839.8,0.0,83440107.8,
21,0.255,6988.6,7096.9,6671.4,8202.0,6290.4,6345.4,8352.2,6899.0,7632.2,13153.2,14215.8,13560.4,12168.9,11546.3,8048.4,14925.9,12906.7,9827.1,10180.4,0.0,130105608.5,
22,0.383,23198.2,28362.8,30620.1,27360.1,29787.1,30299.5,29789.2,23228.2,28906.2,30366.6,19505.9,29624.2,35206.6,23211.3,22872.8,26797.3,37863.4,32526.4,22501.9,0.0,32557.7,
23,0.409,16538.2,18401.1,20666.6,17794.7,16979.1,19890.8,20391.0,20588.7,23726.6,27466.5,20821.5,32004.3,28754.3,14274.6,28724.6,39895.4,36131.3,24075.2,25312.7,0.0,29704.4,
24,0.28,8512.6,10853.3,13213.4,10113.5,10007.1,11126.4,11153.8,10070.2,10400.9,9113.1,7751.3,9459.2,10611.5,4242.4,6369.8,11454.5,15379.8,13092.0,11927.7,0.0,24961.7,
25,0.173,9770.1,12466.9,12135.4,16733.5,13203.0,13403.0,15072.1,14507.3,18467.9,21329.7,14441.6,22733.2,20348.0,9807.5,13025.6,21761.4,14463.6,17748.4,19447.2,0.0,31662.8,
26,0.169,7979.8,6756.3,7963.3,8283.4,8930.2,9250.6,9273.8,9828.9,12819.5,12571.9,9112.7,18127.7,11993.0,6551.0,12370.1,17736.9,18425.2,11237.7,11226.3,0.0,17036.7,
27,0.178,11719.0,12476.0,12066.7,12168.5,13284.8,15735.2,13715.7,14602.3,17589.1,21218.3,11335.3,14228.1,14030.6,10959.3,13225.6,17083.1,22174.5,15279.4,18750.2,0.0,28023.9,
28,0.163,7028.8,8546.5,9768.6,9489.9,9498.5,11237.7,11176.0,10436.3,12436.5,14263.5,12335.7,15550.3,17823.2,7583.9,13792.9,18065.5,18437.8,12711.3,15125.3,0.0,24405.2,
29,0.689,11439.6,13662.8,17999.6,22359.5,12898.7,15833.9,17460.5,11000.7,13649.9,20842.4,14043.9,12241.3,20594.7,11968.3,15630.1,20145.7,15810.5,20699.1,19860.3,0.0,48116.5,
30,0.292,17866.0,17904.9,20802.4,20194.1,18550.9,16029.9,17718.7,17168.7,20131.0,13845.4,17439.0,31060.9,21508.1,16822.7,21089.3,27464.8,18797.5,19212.6,18925.3,0.0,30253.3,
31,0.263,11826.9,11750.0,11553.4,12879.0,13349.3,13595.2,12568.4,13361.7,12141.3,22244.9,14562.8,22301.1,19753.0,12017.9,14695.9,24219.3,20958.2,11963.7,18615.3,0.0,15055.9,
32,0.239,22571.1,24721.8,23180.3,22694.0,21992.9,24140.3,24951.1,21962.6,26162.3,27748.6,14894.5,30390.0,33783.7,17474.1,20821.3,24604.0,29597.4,22769.2,27884.6,0.0,29585.3,
33,0.217,14688.8,15009.0,14718.1,14040.0,14339.6,13460.8,12746.2,13608.0,15270.2,19781.7,14312.3,46485.1,20133.5,17927.2,21294.7,46184.2,32555.8,15921.5,17784.9,0.0,25598.3,
34,0.183,11653.8,12568.9,11095.9,10201.0,10926.5,9524.2,10160.8,11200.0,10888.9,13398.6,12181.3,31108.3,16406.2,11162.5,20560.7,33255.2,22132.4,10396.4,9462.9,0.0,31466.2,
35,0.197,11861.9,11988.4,12231.8,14127.0,13887.8,13014.9,12901.7,13032.7,15544.6,18829.1,14381.4,12216.9,12666.5,11773.3,15196.8,20197.6,9149.8,13482.9,16820.5,0.0,38721.8,
36,0.276,29653.0,30602.6,26195.2,27334.2,36232.4,36619.2,34989.4,32582.6,41019.5,24571.3,17791.1,30943.8,24374.2,20928.1,24252.5,25600.5,16598.0,29139.8,22838.8,0.0,43664.6,
37,0.179,16048.7,17634.8,19582.3,19922.5,18114.8,20794.4,22061.7,19764.6,23369.2,18307.1,15008.7,33164.3,24690.8,14970.4,22515.8,29171.9,22268.8,20141.5,23790.9,0.0,39361.3,
38,0.159,13480.8,18286.8,20201.5,21149.0,22332.6,25931.8,24495.6,17377.8,26441.7,23770.6,11278.4,20088.2,22707.1,9382.7,14058.9,16144.7,24567.4,24146.0,20104.3,0.0,38897.3,
39,0.261,14892.5,20108.1,21793.0,21471.0,17535.8,21890.6,21532.9,12491.4,18982.1,21276.9,10682.6,15873.5,18883.0,9704.1,12622.2,14770.1,15832.0,17817.3,17808.1,0.0,31082.4,
40,7.658,16457.9,103125.7,82988.7,19903.4,25753.4,29841.4,26043.0,9416.8,12024.0,16819.8,4348.4,22739.0,18719.0,6467.2,8434.2,18659.9,23256.9,11920.7,15029.0,0.0,17167.4,
41,0.338,9263.3,8601.4,8783.1,12531.8,18338.6,15886.1,15142.8,11073.5,21625.5,12054.6,10726.2,18917.2,15903.4,10357.8,13464.8,12459.2,13543.5,16862.8,12580.7,0.0,17191.9,
42,0.261,8561.0,12808.0,15129.6,18983.0,19658.6,16283.1,16592.7,14396.2,17649.1,19949.4,15634.5,40995.8,18903.0,10773.8,19681.5,28240.4,23652.6,18524.6,23304.9,0.0,15641.6,
43,0.361,14662.5,18708.7,22306.3,22485.5,22605.2,20487.5,18931.6,21904.8,22929.2,13786.1,15647.2,15041.4,13802.9,10900.5,17590.2,16443.7,15804.2,16100.2,21731.1,0.0,37427.6,
44,0.282,14375.0,18459.9,22307.3,24080.9,20681.7,24357.8,27466.9,16815.1,26985.7,29176.5,9071.0,24002.6,23738.7,11696.3,12027.3,9663.1,21233.7,27458.9,26541.7,0.0,19617.4,
45,0.396,11599.8,15085.1,16784.7,19420.1,18408.1,17748.7,19424.2,18175.2,23087.4,20010.2,19111.3,30704.2,20286.1,12495.1,41504.5,40124.2,22652.0,29721.8,23508.5,0.0,38062.5,
46,0.557,13869.2,13146.3,12721.4,30637.2,17428.1,14808.4,17281.7,11129.0,15788.6,12761.4,12069.1,15481.6,15312.3,9602.3,15007.7,19705.4,8082.2,30727.3,8710.5,0.0,27954.1,
47,0.279,8567.7,9916.8,10622.7,9982.9,15270.5,14761.4,13630.9,13043.6,12318.8,6700.0,6268.5,11026.9,9233.4,9184.3,9642.8,5280.9,10289.9,11258.2,10581.0,0.0,27342.9,
48,0.464,8092.7,7073.5,7607.6,11028.1,10775.4,11431.7,11191.3,13956.4,9144.8,13069.7,12613.9,10789.8,10568.1,15096.1,13669.7,16039.5,12462.4,12698.9,16774.2,0.0,20388.5,
49,0.366,14592.1,17770.5,18258.5,16869.7,15856.9,19273.4,18784.3,13773.9,19440.1,20358.9,24524.2,23257.4,15159.4,16994.3,17822.7,24506.3,23484.8,15407.3,17854.7,0.0,31462.1,
50,0.178,6520.8,5704.2,6402.1,8954.6,6675.8,7566.7,8254.3,9183.2,12208.2,18257.2,16624.4,26097.8,23699.0,11015.6,15018.1,18763.7,19620.2,16533.5,15851.3,0.0,23022.0,
51,0.205,16430.5,22718.5,30165.6,26000.0,31689.8,34373.4,34458.8,21939.8,37351.4,23681.1,13612.1,44564.1,34184.7,13719.6,23280.3,31233.0,39766.7,29228.9,20336.6,0.0,31000.2,
52,0.15,4119.6,6136.2,6974.7,6835.4,8458.1,8598.3,8035.0,6800.6,10951.9,13381.3,7442.1,14449.8,9062.0,5941.7,10463.7,19491.2,13139.5,7339.6,12891.8,0.0,8874.8,
53,0.18,10564.0,12665.4,17710.0,23922.1,14759.6,17434.1,20491.5,13958.2,24293.4,29544.4,11426.9,20750.3,25746.4,9045.7,12139.4,13461.8,25078.4,22334.7,27417.8,0.0,24438.0,
54,0.349,8159.4,10082.1,12910.7,14509.4,13292.0,15279.7,15765.3,12735.0,18904.5,17978.3,12237.8,20668.9,14595.7,9230.4,14465.4,14780.7,20180.6,15023.8,18518.4,0.0,27010.5,
55,0.168,10289.3,12870.0,14893.7,17115.7,13773.0,15604.2,17610.0,13283.8,16274.9,13591.3,12687.2,25417.1,23212.5,11357.3,14746.5,18401.2,19276.2,19258.0,15385.6,0.0,25526.9,
56,0.34,17363.0,15393.5,18519.6,19617.8,19667.1,20501.5,20883.6,16038.9,26637.7,28758.0,20178.1,30277.1,19848.3,21780.2,22621.0,24764.3,24147.3,20448.8,24090.3,0.0,22333.0,
57,0.227,8805.3,14569.8,17609.1,15278.4,18424.6,24362.5,23363.5,17402.6,33947.5,12710.1,21110.5,37216.0,21160.8,11030.7,28611.3,31154.6,14609.8,20476.4,15494.6,0.0,24512.6,
58,0.191,20756.2,22441.1,21702.2,22550.4,24084.8,23637.2,22472.2,23072.5,25097.9,18426.1,30114.3,22940.7,22824.5,26296.1,29569.6,26428.8,19170.4,21283.2,26899.4,0.0,71993.4,
59,0.182,11836.3,13305.9,12819.6,11906.3,13989.0,14570.4,13391.6,12246.5,14792.6,10264.9,7707.2,10287.8,9691.5,10488.0,6846.7,5506.0,10773.3,9169.6,13916.7,0.0,29538.0,
60,0.185,12806.7,14726.6,18052.5,17523.1,19153.5,21771.0,21204.9,15280.5,24272.1,23483.4,10881.4,21959.6,19337.7,12132.6,15149.6,29966.6,19124.5,20254.6,22858.6,0.0,28729.4,
61,0.224,28019.9,32187.3,29747.9,29933.1,34159.1,37489.2,37075.3,36702.3,45164.6,32274.8,27340.1,100893.7,51141.7,21650.2,56778.6,62709.2,27429.3,37205.2,34004.6,0.0,53346.1,
62,0.245,9378.8,8866.1,10032.3,12052.0,10370.2,11283.2,12927.8,8817.6,14100.4,15086.5,8143.3,13215.2,10266.4,8241.3,9920.5,11350.6,11140.4,11653.3,14091.9,0.0,18891.5,
63,0.323,12705.1,16009.8,17353.9,15179.1,15759.9,16726.2,16671.0,16282.9,21322.8,20474.1,22136.2,37094.7,27787.8,14162.3,29247.5,53748.1,26182.2,18606.6,20498.4,0.0,24204.4,
64,0.188,6388.0,7089.2,11317.1,11055.6,7475.5,9454.0,11641.7,4874.1,10956.8,18872.2,9154.7,9483.2,10972.3,6907.0,6737.7,15596.6,17050.0,12079.5,12235.0,0.0,33306.5,
65,0.179,12398.6,15906.2,16378.8,16046.9,15352.7,17802.2,18609.1,14364.5,21128.0,16337.0,12388.2,23195.7,18101.5,11807.4,17074.9,26292.9,21741.5,16750.7,17198.5,0.0,33539.7,
66,0.202,12509.0,14615.1,15257.7,13938.1,15569.2,17439.4,17052.3,12181.7,15864.1,17366.9,13693.3,19502.3,19505.1,11176.8,14152.6,20444.3,20615.3,17286.6,15551.0,0.0,29839.2,
67,0.27,9453.9,13796.6,13978.3,13379.7,12878.4,16694.9,15885.8,13850.0,17575.9,21046.1,17925.7,59238.7,20612.7,9204.1,28024.1,72345.7,24845.5,14416.4,17094.9,0.0,21419.8,
68,0.198,9640.9,17571.6,20654.1,19407.9,15587.9,20297.9,21044.2,13215.9,18978.7,15602.5,22097.8,26358.8,17348.5,15420.3,24151.9,47747.7,19338.3,16659.9,16306.8,0.0,42876.8,
69,0.141,5896.7,5870.2,6513.2,5106.3,6075.3,7085.6,7172.5,6585.6,9885.4,10116.3,10689.5,26185.0,10176.7,7978.9,17371.3,21434.0,12728.0,6598.8,9285.7,0.0,14260.2,
70,0.177,10041.4,12901.0,15973.2,16787.7,14296.5,16894.1,18323.4,12795.7,18591.5,16013.7,8454.4,12731.2,14706.2,8046.8,11290.0,13635.7,8762.7,16610.7,19007.1,0.0,17954.0,
71,0.197,16163.4,17927.9,18680.3,17707.0,15819.9,18212.8,17202.5,13526.6,17368.5,19547.9,12478.9,14669.5,18717.4,11584.0,9261.2,15494.4,18085.5,14877.6,14888.3,0.0,25476.3,
72,0.323,21117.7,23665.0,23758.4,20766.6,23366.2,25460.6,25630.4,27445.6,31708.0,28258.8,24561.3,53113.1,36001.1,24999.5,29595.3,32495.0,49378.9,26054.5,20689.8,0.0,29279.0,
73,0.182,6238632.2,16549.4,19970.2,18783.2,18474.5,22575.7,24568.0,13737.8,28506.9,20665.7,9549.0,48301.3,25146.4,10109.3,11093.2,20664.8,23025.3,21618.9,16910.5,0.0,26346.9,
74,0.183,40388.3,16774.4,16342.1,16343.3,19802.2,21585.1,19723.1,18026.0,22553.7,15935.3,14609.5,17368.2,19715.6,12471.2,17971.1,26832.0,24800.6,19082.9,13697.1,0.0,35457.8,
75,0.18,7093.8,11080.9,14404.0,11167.7,9793.3,12490.6,13670.6,9820.7,12786.8,4613.2,14439.7,20260.5,5301.6,11729.7,22454.9,38987.1,12267.2,9943.2,11117.3,0.0,21300.4,
76,0.206,11519.8,17557.2,19993.0,18338.3,18987.2,22245.1,20247.1,13896.4,26164.3,20837.9,9914.1,15520.1,18624.2,7564.3,12453.8,18743.4,14285.2,22151.3,17994.6,0.0,24195.1,
77,0.158,17430.8,19062.2,15607.8,13105.9,17838.9,19992.9,18414.4,12347.5,15526.8,16830.7,12081.1,16209.4,16623.2,11517.4,13283.9,15448.3,16973.7,16517.7,19036.8,0.0,25660.7,
78,0.194,8598.0,9341.0,11276.4,14479.2,7728.9,8902.4,11214.1,8586.3,7516.5,16992.2,15473.7,17881.4,11707.5,10489.0,13717.2,21860.6,14429.5,11307.2,15674.2,0.0,43378.0,
79,0.207,12722.2,14476.7,13174.8,13899.0,16440.7,16078.3,16443.8,15927.2,25752.8,19219.3,15276.6,59448.4,31218.7,14782.0,18990.5,36249.3,55714.2,21721.3,12487.7,0.0,33522.6,
80,0.196,17048.4,16717.9,18864.1,20475.7,17322.6,23053.2,24114.2,12922.6,21345.8,27037.8,8494.7,28691.1,22637.5,14550.3,11709.2,15770.9,27576.9,22731.8,23577.1,0.0,30359.6,
81,0.229,14837.0,15000.1,15639.7,18119.3,19318.5,20142.6,18524.6,19786.6,26154.6,24372.9,21636.9,96013.7,29519.7,15531.9,28138.5,77827.9,69720.3,19894.8,24635.9,0.0,26876.0,
82,0.194,15957.9,16546.8,13632.6,14172.0,20982.3,24039.9,20416.5,21426.9,35245.9,16530.8,14149.9,96690.2,35152.8,15797.2,25318.5,41490.1,52498.5,20516.2,12438.9,0.0,37662.5,
83,0.201,7772.8,11901.2,15127.9,14352.7,13524.3,18276.4,17144.9,12287.6,23398.8,11803.6,9717.8,49970.2,19486.9,7305.6,17814.4,36572.4,24169.5,16970.4,11790.0,0.0,11369.5,
84,0.238,16205.5,17342.5,15502.0,14011.7,22400.7,20228.5,17993.1,19634.0,21845.0,25040.2,22872.3,30349.9,28055.8,19503.7,21133.7,17069.2,34395.6,16657.6,19315.1,0.0,24893.2,
85,0.323,14370.5,16995.5,19451.2,21134.4,18355.7,20009.7,19844.8,16560.2,19839.7,16445.6,13813.8,16750.9,17285.1,14169.0,14744.6,14660.9,14362.6,18168.3,21498.4,0.0,18827.5,
86,22.163,35798.6,122397.3,83313.5,89727.2,17218.1,18857.3,19553.8,6065.3,5341.2,10422.8,12937.6,14913.5,8209.6,7766.4,13874.4,26193.1,9005.6,9238.2,13209.2,0.0,14837.0,
87,0.476,9007.4,9758.4,9736.8,8186.8,9720.0,9509.4,9003.6,8929.0,9485.6,7501.4,11496.1,12985.3,8561.3,9786.5,11292.0,12552.3,8731.5,7985.6,8999.2,0.0,28567.8,
88,0.395,16112.4,18055.9,19010.9,15945.1,14563.6,15399.3,15855.3,10647.4,11785.3,12176.1,19191.6,16469.4,19455.5,17191.4,9571.3,10699.1,13864.9,14281.6,15702.2,0.0,45435.4,
89,0.295,7643.1,9416.4,13347.9,17315.2,11615.5,14209.9,15194.9,6840.7,12898.5,15140.9,7957.8,13316.9,12479.4,7373.6,8181.7,11127.5,13010.9,16887.0,18246.6,0.0,64670.2,
90,0.267,6750.1,7634.3,8891.2,10013.3,7035.4,9031.1,9703.0,7560.0,11864.5,7626.2,10297.6,18567.6,7592.0,8562.0,14420.5,19624.9,15420.8,9682.7,6962.9,0.0,16418.4,
91,47.901,15978.2,52386.7,49881.4,25287.5,28350.2,35576.5,34124.0,14870.9,32572.8,23633.0,14405.8,15695.2,26465.0,11786.6,13346.9,10747.6,15267.5,30231.0,24236.5,0.0,29054.8,
92,0.274,12390.5,17559.7,15209.8,13037.8,15835.2,18236.2,14850.8,12927.8,14386.9,14041.7,10750.6,9560.6,15172.9,12035.4,7035.8,14706.7,13677.7,12694.1,16176.1,0.0,14689.8,
93,65.101,19166.5,56000.4,43842.0,21079.0,33198.2,32762.4,26198.6,25774.9,27194.5,19991.2,16831.8,28784.8,20820.4,16274.9,23871.1,44301.5,25236.5,25027.7,17299.0,0.0,19494.5,
94,0.366,5771.8,6974.0,6749.7,7111.2,9439.3,11209.4,10736.0,10216.2,14466.9,7216.3,10333.7,10423.6,10489.3,9106.2,10211.9,10808.0,8313.1,10400.8,6718.9,0.0,15514.0,
95,0.277,6642.5,9638.9,13881.8,12882.1,11230.0,14321.9,14788.0,10779.7,15528.6,18940.3,16982.3,16646.6,18712.4,14265.9,14363.8,11958.5,16406.4,14889.4,20153.9,0.0,34864.6,
96,0.641,16688.3,20202.2,19876.2,19054.7,20394.5,22321.1,22988.2,18621.0,23400.8,24397.5,17307.3,20502.1,24090.8,16199.0,16987.3,19087.8,24763.2,23108.5,23911.1,0.0,28303.7,
97,0.476,15203.7,21054.5,23573.2,16103.2,19388.0,20953.0,19194.6,16653.5,20230.3,16993.7,21139.1,19378.6,14523.5,14197.9,15542.6,16185.9,17553.5,16353.9,16401.6,0.0,38994.8,
98,0.316,7936.8,11638.5,12786.7,14270.9,11344.6,11320.1,12554.8,7609.9,12982.3,14541.0,15482.3,15014.2,17315.2,8722.9,9829.5,15572.2,17807.8,14015.8,15996.5,0.0,39864.5,
99,0.399,16144.0,15037.9,13879.2,9336.6,15074.9,13517.2,11339.8,19756.3,14405.3,12575.5,21786.7,11058.9,8795.9,21767.1,22119.1,18361.5,12116.6,9569.4,12494.9,0.0,35321.5,
100,0.505,12413.9,17167.0,16373.2,12946.2,14774.8,15878.0,14571.0,15184.1,18634.2,21259.0,14981.6,20470.8,22271.0,15615.0,15056.9,13241.6,15420.3,17327.2,19356.1,0.0,37813.0,
101,0.417,7219.8,11841.2,11222.8,9846.1,10536.1,13060.8,11830.4,10062.3,14538.7,17044.5,6952.3,16244.7,12280.7,7343.5,8770.7,9594.9,29476.3,11911.0,12971.9,0.0,24353.9,
102,0.747,14347.1,20028.5,19818.8,18684.7,16574.0,17318.7,17748.2,16662.8,16761.9,14710.3,20924.6,52207.0,23958.8,12928.9,30569.1,52808.5,20186.9,18307.3,16813.3,0.0,28800.6,
103,0.391,16299.6,16287.9,17494.5,16129.8,17737.6,18978.6,14897.8,13335.6,18923.2,13533.6,12132.4,60422.3,20706.3,11973.2,12753.2,40248.8,40967.1,13833.4,16710.0,0.0,24924.2,
104,0.347,9023.9,10554.8,10965.9,11835.8,12461.0,14077.4,13737.7,16168.5,22234.7,15215.7,11193.2,97621.6,29493.9,9553.7,31310.5,43105.0,35933.6,16701.4,14364.7,0.0,25030.7,
105,0.382,11808.3,14105.7,15521.2,16467.8,13691.2,14926.8,17245.4,11186.3,16697.3,15184.3,9969.9,11086.7,14908.4,9102.3,11414.7,11799.4,12669.4,15825.0,15575.0,0.0,38317.0,
106,0.3,8625.9,13246.0,13786.3,13100.0,12259.2,15759.0,15683.6,9949.5,18034.8,21896.6,11747.1,16995.5,19811.1,11498.9,12195.2,11161.1,14856.4,16750.4,18009.3,0.0,36527.5,
107,0.315,6623.2,11044.0,10570.4,7423.9,12731.9,15507.2,12865.7,10426.1,15738.6,9899.9,10566.4,16634.9,10495.5,7992.2,13681.3,11260.5,7598.0,10089.0,7381.8,0.0,16109.3,
108,0.296,10106.0,14271.9,12508.3,12044.8,17161.3,20478.9,16725.7,15502.3,23671.5,12896.6,8501.6,27700.7,13055.1,8673.5,15961.4,11526.6,15868.1,14630.9,15741.5,0.0,14205.7,
109,15.555,18893.1,76758.5,60149.1,19592.4,25806.6,31302.5,27001.7,15014.9,24043.3,21462.5,15112.8,16085.5,24141.4,14102.4,10369.3,12258.0,22077.8,22396.0,24864.3,0.0,32672.1,
110,0.611,15674.9,46781.1,34482.7,19579.0,14784.0,15125.9,14271.9,12083.9,16365.9,22112.3,12134.8,10715.4,15044.1,11017.1,9567.4,11208.1,10241.5,16881.3,28084.8,0.0,23925.1,
111,0.67,22600.9,59023.5,50151.5,22319.2,27595.5,29997.4,29735.5,23606.8,24951.4,27477.7,18848.9,21925.1,24461.7,20010.5,21805.5,19993.6,18847.3,22301.6,26605.7,0.0,18577.4,
112,0.698,25613.6,43527.2,33091.8,21906.1,23427.9,23339.7,23353.5,22343.8,24535.2,22330.7,20168.0,29195.4,16174.5,20382.4,21306.5,42598.3,27827.0,17529.9,19139.4,0.0,21532.4,
113,0.418,20003.0,30869.4,29584.8,26174.2,24266.6,26857.6,26436.8,17293.0,21597.3,21740.0,13880.6,55586.4,23291.2,13292.9,18980.8,85849.6,77801.7,19825.0,24666.6,0.0,24671.3,
114,0.628,15916.7,29292.3,29989.2,23101.9,18390.5,23214.8,25517.5,14598.4,27577.8,37557.8,19300.5,179664.0,76252.4,13224.1,31948.8,103364.4,269680.5,28144.8,22611.1,0.0,28182.1,
115,1.119,21561.6,37263.6,29549.8,25826.7,22804.7,25336.7,26482.2,14511.4,21449.8,42592.6,8501.9,101267.9,58082.8,10165.4,9869.2,75665.1,143298.2,26032.9,34297.6,0.0,23354.6,
116,0.553,12902.5,21449.3,21867.9,22610.4,21044.6,24744.0,24326.4,17527.1,29995.5,28999.0,28776.0,72671.5,32031.3,14197.4,28507.0,81972.8,61173.4,25187.2,26558.4,0.0,20742.3,
117,0.643,21606.4,32889.1,34708.0,34140.7,29967.6,39209.7,37653.2,17776.5,35917.3,29420.1,16399.7,101843.8,36971.2,9756.9,28223.0,140963.8,174133.1,32133.9,39000.2,0.0,30445.9,
118,0.307,17707.6,22295.3,21789.1,18333.3,19217.8,24833.2,25673.7,20432.7,31040.8,19658.7,37047.7,106010.5,27383.7,19723.6,49959.5,124725.8,69419.3,22067.8,18502.5,0.0,46095.9,
119,0.296,14073.8,19942.5,16065.6,14693.8,12257.1,12089.7,13403.4,9102.9,13314.5,17275.2,7391.0,20572.4,15645.5,7649.0,8674.9,12157.9,20745.4,14310.8,14691.4,0.0,17847.2,
120,0.535,20530.4,38501.8,33842.6,26683.5,26167.7,29445.8,27295.8,17084.0,29203.4,27774.1,9142.2,18699.9,27444.7,11011.0,11299.1,9685.6,19089.2,29817.7,32630.6,0.0,46807.0,
121,0.949,12680.0,44841.9,34093.4,23265.1,23247.8,23859.4,23111.6,12493.0,23939.0,30440.1,8354.9,23288.0,27852.7,6929.6,13474.5,14344.9,20831.2,26968.3,31763.2,0.0,25178.6,
122,0.717,10205.4,16772.4,19349.9,19700.4,10938.0,12989.9,17005.6,8367.6,20174.3,29018.3,7827.1,56272.7,44904.4,10317.9,6284.9,32275.5,22701.3,28090.0,24057.9,0.0,23723.8,
123,0.329,18478.7,16985.7,18154.8,17363.9,16932.6,19155.9,18225.0,19045.6,22979.0,18449.9,13609.1,19256.5,16097.2,14956.8,16324.9,9577.4,17632.8,18977.7,19825.0,0.0,50566.9,
124,0.237,10491.1,11034.8,16056.2,18996.9,13940.3,20164.4,20015.9,12709.3,24465.9,16610.1,12885.7,51233.2,22296.8,12395.8,20602.3,27955.1,39011.7,17569.5,17296.4,0.0,24642.7,
125,5.227,11045.6,27019.8,29135.2,19394.2,16174.1,18503.0,18689.5,15293.2,17064.9,24625.4,15062.1,19970.6,24343.4,14195.3,17607.3,15842.4,20133.5,18740.4,22116.3,0.0,37578.6,
126,0.395,7442.4,10312.8,7922.0,7195.6,8532.0,10566.3,8812.4,8331.1,11002.5,9433.7,14755.0,20033.2,12574.2,8818.1,16323.8,23508.2,12430.3,6456.2,9959.5,0.0,26135.0,
127,0.361,12661.3,26058.9,22376.4,17828.8,17859.1,19666.2,21062.1,16572.4,24848.9,27767.5,16609.1,32007.1,27546.9,14496.1,16893.5,20820.9,26816.7,22339.0,24096.1,0.0,27175.8,
128,0.496,5657.3,17821.5,18199.2,12930.5,9952.6,10707.2,10663.6,9733.9,11650.6,11580.1,7334.5,12859.6,10799.1,6110.0,10945.1,14539.9,10959.5,11207.4,11137.1,0.0,21283.5,
129,0.517,15992.3,46578.8,37182.6,21492.1,25537.2,29304.9,27464.0,22133.0,31221.1,17296.9,13049.3,43236.0,17700.3,10751.2,22197.3,25726.3,17373.8,23484.1,20383.1,0.0,23669.2,
130,0.289,11567.7,20552.5,26107.7,19379.9,8074.9,10618.3,12371.3,8513.8,11533.1,16871.9,12963.3,38846.6,14300.0,11761.9,11559.8,34748.1,18128.1,12476.3,26134.2,0.0,40878.4,
131,0.248,6041.8,9351.7,12983.1,9533.0,7199.5,7574.9,8199.3,7292.0,9174.1,16058.7,12865.3,26214.1,19867.4,8891.0,11832.4,22553.2,16211.4,10067.5,14849.3,0.0,15410.8,
132,0.541,11859.3,22609.5,28853.9,20065.1,14415.1,17866.0,18949.9,10211.9,16171.5,14668.3,9568.5,13000.7,8143.2,8653.4,8517.2,11472.3,9286.4,13423.0,17647.1,0.0,33242.8,
133,0.497,13890.9,20549.9,21573.7,19249.0,23869.6,26201.0,22905.7,27703.1,28614.1,26349.1,20122.5,24652.7,19478.0,19752.6,31809.1,18944.0,18770.3,22760.6,28164.2,0.0,37493.5,
134,0.381,15967.5,18935.5,21046.3,23709.3,23451.4,25372.5,24969.7,23960.7,30380.6,22307.4,20662.6,25962.1,24128.6,20268.7,29284.5,21525.6,21103.8,25929.1,26754.9,0.0,27727.8,
135,12.672,10346.3,28576.4,35572.8,25340.5,17855.0,23859.3,24642.0,14069.0,22857.3,11569.5,12362.3,20244.1,15117.4,10590.1,10194.1,22505.9,21238.6,18352.0,17400.6,0.0,12901.7,
136,0.3,3834.3,8561.9,10963.6,15981.0,4458.3,7379.3,10258.4,5090.4,6865.3,11364.7,10695.7,21757.7,10442.4,7545.9,9198.3,38908.7,25940.0,9674.8,21796.4,0.0,18867.3,
137,0.28,21783.6,39923.6,32043.1,13251.8,29476.2,33013.6,28306.3,15855.5,29909.4,13272.1,9291.6,112821.4,35633.3,9743.5,19260.3,77614.8,100192.0,19228.8,8587.2,0.0,25497.8,
138,0.249,15954.4,31080.0,35903.5,22299.9,24668.4,30145.7,28536.4,16033.6,30111.3,16967.5,11143.7,95558.6,31893.4,9672.5,22956.2,67515.9,61195.3,22041.0,17797.1,0.0,25814.3,
139,0.233,11742.8,12724.6,17631.8,27883.1,18660.7,25965.6,28559.6,16484.7,38817.6,21132.6,31631.8,188093.1,53057.9,11765.9,55094.3,176069.9,101338.0,32993.8,25054.8,0.0,31452.8,
140,0.281,13450.3,14931.0,17279.7,13651.9,13676.6,15442.6,15288.2,13225.6,20684.4,13257.3,17577.5,62418.3,27517.9,15815.5,26025.2,45602.2,37353.5,14164.5,14158.6,0.0,29576.2,
141,0.203,15719.2,19236.4,16865.8,17068.2,16847.0,20161.7,19904.4,13269.5,20068.3,24120.6,23478.8,188715.5,56818.4,13581.3,45306.7,214221.4,239931.1,16065.6,18020.4,0.0,25801.7,
142,0.288,16070.5,29748.9,33861.0,34424.7,30515.3,39862.2,41617.0,22306.7,45604.0,37968.2,15199.7,140257.9,70066.4,11194.9,21754.5,97123.7,167093.7,39193.9,43274.7,0.0,22596.6,
143,0.325,11936.9,24754.2,29179.1,29516.1,23741.1,28765.2,31811.1,16821.1,33780.0,35254.7,35409.3,81758.5,38997.4,12570.7,35410.5,88564.2,39711.6,32262.9,37466.4,0.0,21963.2,
144,0.192,20336.7,26110.1,30391.5,36125.7,29986.0,38368.1,39483.8,24512.9,47664.8,20078.3,10831.1,140719.3,45290.5,15414.0,35042.9,107198.9,58332.6,39882.5,32441.8,0.0,22401.5,
145,0.804,34360.5,56881.5,56362.9,43846.1,46876.4,55348.5,54388.8,34781.0,56583.3,35840.1,22884.4,77788.1,34182.3,24617.3,31088.5,75058.0,48721.4,43596.1,45301.4,0.0,43235.4,
146,0.365,41189.6,50628.4,57028.5,50871.2,50720.9,59157.1,56719.5,52183.8,70199.1,50836.7,34687.0,108401.0,69504.2,31759.4,63808.9,82717.2,58880.4,58772.2,55456.0,0.0,83216.7,
147,0.316,15155.0,15869.4,18002.5,28725.1,15627.5,18001.3,20474.2,15562.1,26152.4,40763.7,12874.7,73135.7,41320.3,12007.6,28060.4,39964.9,46850.4,26817.9,42574.1,0.0,45365.7,
148,0.262,14005.0,23264.5,33636.5,31972.9,26570.0,33550.7,35943.0,20647.9,47997.1,15841.7,15148.6,96243.8,27391.3,12081.5,30661.3,41060.1,19326.8,31397.0,25421.2,0.0,28291.5,
149,0.403,14188.1,24707.6,26915.2,19660.7,18525.4,20732.6,20622.8,14332.0,22833.1,10477.0,7527.7,20595.2,12659.0,9049.7,9912.5,21361.6,10439.9,16266.0,14352.0,0.0,22571.0,
150,0.323,12749.1,17135.0,24612.2,23397.2,17839.2,23295.9,24153.3,19632.2,28793.5,22176.1,32532.5,176147.5,56441.4,16025.5,59739.5,199793.9,130742.6,24361.2,20751.4,0.0,40572.7,
151,0.376,12180.5,39814.1,30870.7,14178.3,23178.4,27982.3,23497.5,15229.5,28756.4,26432.0,9693.2,64684.1,33289.1,6375.3,21561.7,71119.8,86594.4,19332.2,18940.5,0.0,7399.7,
152,0.278,24043.1,32255.4,25097.5,16019.5,27166.3,27174.1,22671.0,18555.4,25869.2,42612.4,22022.5,179544.7,75076.8,19962.1,40254.2,135445.7,246351.5,18903.7,17508.6,0.0,45702.7,
153,0.542,17529.5,27690.0,22937.1,20242.8,19944.7,22498.6,20797.2,12027.9,19900.4,23795.7,16219.3,69959.1,33822.6,11137.6,21159.2,86548.1,101101.4,16176.5,25746.8,0.0,30596.1,
154,0.28,20280.5,26898.5,27704.5,24141.0,23805.7,24944.2,23717.3,20685.1,29312.8,20051.2,17238.5,101048.8,29078.4,19564.6,29461.8,119167.1,62363.7,20610.0,23152.7,0.0,25421.2,
155,0.5,23947.6,29135.0,27225.2,20968.1,27456.8,30762.3,28182.4,17206.5,29347.2,24659.4,27740.9,104200.6,25006.5,13933.7,35605.4,133775.9,74225.7,23382.1,25013.4,0.0,29078.5,
156,0.231,6667.0,9001.4,12022.1,10631.9,10801.6,13858.9,13807.0,13133.3,22407.7,19182.7,15873.6,123374.8,38048.1,7209.6,46657.3,148035.0,114634.0,16309.7,12728.3,0.0,19556.4,
157,0.22,16357.0,22327.1,24020.7,21268.6,22494.7,27255.2,26127.7,22911.4,37212.0,48583.6,17026.6,155297.2,72232.5,12330.8,39910.9,128471.6,193018.7,29491.5,24342.4,0.0,30247.4,
158,1.114,6929.6,8463.5,10905.1,11589.8,10582.6,14115.0,13270.8,13389.1,23045.5,22375.5,15180.2,145376.6,45583.1,7415.9,42806.7,175252.6,183610.6,16145.8,16279.5,0.0,9486.6,
159,0.332,11493.5,14339.3,14182.5,13379.3,15161.1,14483.8,13420.6,12218.9,21670.9,16173.2,31766.5,130683.2,31706.8,10782.5,53130.5,165512.3,53503.1,14424.4,15131.4,0.0,27550.3,
160,0.202,11015.2,14531.1,18260.0,23744.1,16197.2,19659.7,21276.0,18587.3,30315.4,31289.6,10608.0,73380.2,32919.5,11765.4,30125.7,29246.9,23017.3,26285.1,36871.3,0.0,30854.9,
161,0.275,26867.4,31802.9,30740.4,23095.3,40247.1,47828.1,43342.3,29875.9,54975.3,26055.7,13769.9,62626.3,41103.6,15415.7,19166.0,37223.3,49430.7,40778.4,28965.7,0.0,28307.8,
162,0.3,13251.4,22860.1,26778.5,32501.8,18819.3,24988.9,29415.6,15293.0,30280.4,64295.6,28691.6,171397.0,75676.4,17415.8,42338.1,128804.0,198299.4,34921.9,42888.5,0.0,27314.5,
163,0.208,10127.0,21727.4,25914.0,21337.0,16793.4,21616.2,23622.9,11412.6,19789.9,13994.2,11670.3,97376.4,28444.5,6709.2,24700.3,89430.1,70094.5,19935.3,14946.0,0.0,20395.9,
164,0.264,15175.7,18142.7,17988.3,16861.1,15398.7,18084.4,18826.7,13035.0,20788.3,15977.1,7150.0,85842.6,27348.0,6972.0,13241.4,58516.7,60168.1,16982.6,22060.7,0.0,24359.6,
165,0.177,3264.3,3959.1,7449.2,10569.5,5578.1,7850.2,8249.2,7111.7,11170.2,9976.0,9408.8,34159.4,19353.8,7259.3,14112.4,16460.3,15750.6,10559.1,9443.3,0.0,25983.3,
166,0.204,13019.6,15740.5,17909.1,17286.1,20945.3,23985.7,21397.8,17177.3,25669.8,18218.2,9810.3,36378.7,18205.2,8782.5,20939.0,32667.2,22002.7,18179.2,19284.6,0.0,24637.2,
167,13.719,82802.5,26842.5,18529.0,70736.6,112856.8,23284.6,23361.6,24298.5,30941.5,32542.2,25152.0,114399.4,45216.6,23748.2,42271.2,92020.5,57055.5,26577.5,29334.2,0.0,34704.6,
168,74.953,45859.9,96480.3,42972.6,57969.6,39559.1,28187.4,19983.7,27688.3,20937.6,17390.8,10605.6,11957.5,17502.7,13305.6,10431.3,9386.0,17490.1,20376.8,19419.2,0.0,20335.5,FRUITION-CALC
169,0.656,24666.5,26284.4,28808.1,34306.6,26564.5,29828.5,32565.3,26240.1,32380.6,15238.5,18801.2,17870.8,21129.5,22837.3,18849.3,12900.9,21434.0,29763.0,26615.0,0.0,37486.8,
170,0.643,23039.2,29003.0,27156.1,23940.4,32161.1,35843.5,31312.3,24563.4,30489.0,20543.6,15837.1,24945.7,18892.3,18403.8,17177.3,29362.3,100234.1,23118.3,19562.1,0.0,41183.5,
171,0.283,9062.9,13084.0,17075.7,15918.4,11652.1,15431.3,17156.6,7827.7,17705.5,12011.9,10075.4,25127.6,17991.0,7396.3,10667.7,15967.5,19708.6,16605.4,12572.2,0.0,30697.2,
172,0.313,10588.9,12532.0,16765.3,16273.2,14538.6,15277.9,15900.8,13379.5,18059.2,15503.1,12202.8,20374.0,17384.0,12877.4,16310.9,16552.6,14790.5,17392.3,17842.6,0.0,25717.7,
173,0.311,8837.0,13224.2,13551.3,8775.3,9706.9,10324.9,9909.0,8580.4,10092.1,16257.4,11995.6,7969.1,9308.7,8000.1,8862.0,13124.4,9560.8,7613.6,12684.6,0.0,32267.7,
174,0.248,8106.1,9371.8,8457.6,10832.1,10265.5,10982.7,8835.0,10475.0,11190.6,16544.5,14624.1,19631.2,13046.5,10022.3,13862.4,17642.5,12801.1,12297.9,17855.7,0.0,25448.3,
175,0.386,13561.2,13876.7,15185.4,15791.8,17526.8,18530.5,19018.3,18676.9,27673.0,20560.0,17365.6,46881.8,19959.9,15745.8,27184.9,33824.8,21194.2,20299.2,21668.9,0.0,35128.3,
176,25.58,12493.3,35018.3,36263.4,18580.4,16699.8,19509.4,22189.7,17562.6,21970.8,26795.8,19634.1,27213.6,23473.5,16459.6,21654.2,24248.2,26290.4,21078.6,30892.9,0.0,20591.1,
177,0.347,16918.1,47660.9,43880.9,22310.9,21948.8,23150.1,22701.9,19448.7,18797.1,21760.5,14474.3,20081.5,29069.7,13701.4,22539.1,18221.3,19454.3,24552.9,26067.8,0.0,29075.9,
178,0.279,9492.5,18800.3,16073.8,11773.4,13306.0,14399.2,14915.2,11275.9,19780.7,22354.3,9619.4,17473.2,20327.7,6868.5,11563.3,13989.4,20718.7,17501.8,15825.9,0.0,20957.6,
179,0.331,11257.6,17747.9,18570.4,11758.2,13759.6,13222.1,13582.5,12639.7,15222.9,9158.4,14340.1,12708.8,8922.1,13053.7,12774.7,13301.0,9371.0,10590.9,9848.9,0.0,23903.0,
180,0.336,11195.9,17895.3,17148.8,20236.9,14954.7,16207.9,16054.6,15984.1,22276.4,21032.4,17341.1,30473.4,27915.3,16288.3,21386.4,23316.1,24848.9,19249.9,23403.9,0.0,36747.4,
181,0.833,23268.9,33739.9,33003.3,20693.0,29339.1,32202.2,29839.3,21254.0,36152.0,16235.3,26249.9,35381.0,13822.1,22898.0,18503.6,57977.6,40486.2,21599.2,19086.5,0.0,41733.4,
182,1.227,32829.9,43909.6,40170.3,28140.1,35405.4,36153.6,32526.2,29371.6,40534.7,30412.8,26723.0,169090.5,44617.0,25859.9,51386.9,114899.6,88065.8,28122.4,32481.5,0.0,30261.6,
183,0.41,23510.8,33384.5,39330.8,54711.1,36330.5,47397.3,53029.3,28044.1,53457.7,65127.3,13648.2,39468.0,62789.7,15897.2,23909.7,60847.6,50124.6,66774.7,74403.2,0.0,28745.9,
184,0.377,9110.2,14159.8,15460.6,16099.7,12210.8,14593.2,14764.4,12876.0,16114.3,22045.1,20133.9,63388.0,26417.4,10709.8,40231.9,78927.0,27565.0,19578.8,16258.4,0.0,29466.2,fruition
185,0.726,16598.0,21983.1,19688.2,20220.4,18010.6,22958.5,21777.4,11891.1,27685.4,14810.5,8782.9,92097.5,30723.3,7482.9,15802.0,90366.1,136412.3,22333.1,16307.9,0.0,23925.8,
186,1.047,15049.2,40784.3,39465.7,13572.9,18649.6,20938.2,18698.6,10698.7,13689.4,4518.5,18885.2,72454.4,5637.9,7744.6,22735.5,162333.7,42223.7,11556.7,6961.2,0.0,22042.6,
187,0.429,21397.0,54653.5,47051.1,19543.3,23113.2,26364.2,24808.3,16928.0,19404.9,36327.4,28648.7,68870.5,41181.7,13862.6,28422.9,114316.0,154305.8,20315.2,25097.5,0.0,28108.5,
188,0.265,4996.8,15319.6,15506.6,13655.0,8567.5,11843.2,12164.5,7655.5,15566.8,14486.7,8624.0,25563.0,16833.1,6202.5,9668.5,13515.8,17513.5,13676.5,19277.9,0.0,19243.4,
189,0.399,18675.6,32883.6,30685.4,24456.0,20112.9,21412.3,22125.9,17304.7,21491.4,25847.6,19924.6,30087.8,23289.8,17328.7,24826.9,32499.8,25005.2,24404.7,29497.4,0.0,17595.5,
190,0.476,16441.6,35193.0,35427.3,29022.8,25336.6,30880.9,30825.5,20531.3,39877.1,39995.2,26316.0,132650.0,68387.3,14700.6,52759.2,129923.9,58561.5,37747.3,37036.6,0.0,36078.5,
191,0.237,11068.3,12193.3,14299.7,13975.0,10772.2,10664.0,12294.1,8246.5,11268.0,18554.6,10111.1,34342.5,24395.0,8343.0,15588.6,48507.2,30966.0,17607.2,19753.6,0.0,26313.7,
192,0.249,24005.0,25752.4,22969.2,23799.3,37408.7,31623.5,28528.2,26453.8,35926.3,19543.6,18339.8,103209.7,43978.7,18348.4,28983.1,93486.6,165110.4,25852.4,24109.7,0.0,33409.7,
193,0.258,12293.4,11280.1,13875.4,28866.3,11951.4,13642.9,19632.9,8434.2,15327.9,50583.9,13986.7,59743.5,42345.4,11484.3,19724.9,46786.8,69480.0,24330.6,35599.7,0.0,34984.6,
194,0.25,9443.6,12583.4,14428.3,20185.5,7291.5,11224.4,12290.1,8101.6,10600.2,27934.6,10394.2,29285.7,25479.3,9485.9,14290.1,19655.6,31700.4,17729.1,27100.1,0.0,35532.8,
195,0.224,8810.9,9325.4,15555.3,14727.2,9210.0,11533.6,12484.9,11803.5,13467.4,17465.0,9235.2,30027.9,14610.2,10016.7,15305.9,18936.2,22155.3,14130.1,11680.5,0.0,23576.1,
196,0.444,20298.8,30638.3,39884.8,27687.1,24409.4,29534.5,31569.0,24848.4,26557.8,25831.8,25624.1,29832.9,26462.8,24156.0,27598.4,29974.1,27584.7,25496.0,21617.3,0.0,15029.4,
197,0.243,14112.5,23659.3,27448.5,17935.6,15155.1,17215.1,17350.3,11121.0,15927.4,17492.2,11690.8,43047.2,30209.0,10730.4,13356.0,45731.9,141672.1,12588.7,14645.6,0.0,28650.9,
198,0.652,33389.8,57985.2,60576.0,39541.4,42606.2,48235.5,45934.2,26935.8,42706.4,40062.2,23943.3,102996.2,62161.0,19020.4,41614.5,123255.7,142194.1,38804.1,27985.3,0.0,28601.9,
199,0.348,13979.8,19081.7,17108.2,13384.3,14965.9,14181.1,12569.2,12592.2,16319.3,11497.0,12875.0,65535.7,14649.7,11864.1,26327.7,38688.2,12998.1,11902.4,10687.6,0.0,24567.3,
200,0.266,8758.4,18956.9,16160.9,13394.7,7530.5,9515.7,11794.2,7737.0,12044.4,12955.1,12004.0,22980.4,13816.8,7921.7,12499.7,25178.1,15293.2,12690.5,16152.3,0.0,27417.1,
201,0.207,13184.0,20167.4,20262.1,12471.7,17665.5,18540.8,17240.4,13313.6,17647.8,10597.9,8109.1,18546.9,12589.1,8573.5,15897.4,11071.8,7950.2,10903.8,11246.6,0.0,20486.8,
202,0.172,7620.1,8557.5,8119.2,7089.0,7438.7,9270.3,9254.7,7831.5,12936.2,13055.1,14648.3,19809.5,7926.5,11788.5,10668.7,13427.3,12983.1,7134.8,11400.0,0.0,23409.3,
203,0.219,15426.0,19349.9,19287.8,11993.4,19080.1,21043.0,18720.8,16545.4,21978.8,20876.8,13147.3,30162.2,23348.6,11441.0,16836.5,27465.5,21793.9,18177.7,16596.1,0.0,26689.8,
204,0.245,12849.4,23655.0,23746.9,26106.1,19508.9,21831.1,22441.0,16340.7,19460.3,26700.1,11775.9,19114.7,23944.5,12532.8,19518.1,17073.2,15468.8,23044.4,33667.9,0.0,32950.7,
205,0.385,8291.0,14353.7,19543.2,19909.0,17740.9,20958.0,22273.3,15159.6,31803.7,30310.3,16882.8,112736.0,32239.1,7741.6,42497.4,123813.8,28325.8,24718.4,19791.5,0.0,16703.5,
206,0.211,10415.0,19086.0,24300.0,21544.9,11468.7,17632.7,21472.0,8377.2,15601.0,20373.7,24059.7,117993.7,30713.2,8394.6,46977.8,142592.8,64538.5,22743.8,21187.6,0.0,19137.7,
207,0.356,55127.5,59252.8,57499.2,52227.6,53452.2,57020.6,55435.1,42134.4,52449.9,53223.6,32395.6,117827.3,46979.3,39722.9,46665.3,120563.0,82105.9,49300.4,53294.2,0.0,39098.6,
208,0.204,11401.4,21748.9,26212.6,25440.7,20544.3,26509.5,28675.9,13077.3,29580.5,33923.0,24252.4,130193.4,53591.0,7048.4,33838.1,154609.8,137130.9,28657.1,21575.8,0.0,28944.5,
209,0.215,14308.3,21509.0,27718.6,28559.7,21499.4,24500.4,24639.7,15248.2,25862.6,24473.0,9457.1,52508.0,30029.9,10126.6,12966.2,49036.2,34827.3,22520.3,28634.8,0.0,31488.4,
210,0.195,8852.7,8559.2,9660.1,12430.6,9201.8,9903.7,9531.4,13955.4,16245.5,14228.8,18148.1,52251.4,11762.9,9599.4,28727.0,47685.4,25546.6,10427.3,13118.0,0.0,38024.0,
211,0.445,21286.3,30902.0,28516.8,25522.1,23504.1,22068.2,24698.3,18972.6,19664.8,25315.1,21337.2,86636.5,21621.9,17343.1,48812.7,122948.0,27966.3,21130.4,31251.6,0.0,28649.0,
212,0.364,17100.9,41239.4,44258.5,29428.5,31739.8,36975.4,35762.1,18418.6,41855.5,31527.1,21119.8,138955.0,36403.4,12512.8,43567.3,178932.3,81417.2,34829.8,24913.7,0.0,18438.7,
213,0.287,8367.6,21098.0,24937.6,19488.7,9037.4,14131.2,17678.8,6634.0,9211.9,23743.1,27261.2,174064.4,26345.5,12175.5,49584.1,160834.1,70894.1,12601.4,18847.5,0.0,35643.2,
214,0.338,14546.7,32760.4,34859.0,24028.7,19035.3,23841.0,23872.2,13360.7,18923.0,28725.4,14907.6,96996.0,38250.1,9964.1,38449.4,106633.4,56820.2,22994.3,30666.6,0.0,33027.2,
215,0.234,11460.1,19409.5,21740.2,20957.4,22861.0,26519.6,25160.1,13027.8,28358.3,16909.2,7523.6,68821.3,27121.6,8782.0,17465.7,54346.4,48736.8,22270.1,12532.3,0.0,14143.5,
216,0.206,7594.3,21550.6,31704.6,29962.4,17696.7,25612.2,28463.1,9417.1,28636.7,21579.4,10468.9,46907.9,38177.8,6633.1,8535.6,21651.4,38309.2,31963.0,22289.5,0.0,35676.8,
217,0.213,17312.8,19557.3,22405.3,19388.1,27007.5,30610.9,30732.6,21420.5,41623.3,24741.3,22255.5,119075.2,32341.5,12688.2,47143.8,98227.0,29414.0,31366.8,23750.0,0.0,22194.9,
218,0.248,12909.2,14210.3,10670.2,9275.2,10635.2,12674.2,12168.6,13532.8,24935.7,8400.8,12075.9,86245.4,20528.1,10710.6,29197.5,56324.2,46336.5,11740.5,9216.1,0.0,23858.9,
219,0.338,24436.7,58107.0,58428.5,26267.4,31803.6,38405.0,34803.6,22519.3,41496.3,54741.9,20493.8,146011.7,81333.6,13544.0,38321.4,121510.9,166515.9,38607.5,31050.2,0.0,40379.1,
220,0.284,16673.4,35527.3,34931.9,26430.4,26646.6,30475.9,28804.2,16039.9,29298.0,15354.1,15678.5,121863.2,22778.5,9171.9,27673.8,126356.2,98184.9,21086.8,15230.8,0.0,26728.7,
221,0.351,29470.1,44092.9,50252.7,39453.7,38630.8,43638.4,42828.0,25255.7,36636.2,24356.3,17111.8,101795.0,39176.1,15708.0,17758.4,107542.1,96106.0,35915.5,25713.0,0.0,21795.0,
222,0.304,11016.0,12636.7,17907.3,17775.7,13189.0,15616.9,17106.2,14977.3,26274.5,45859.0,11438.2,211816.1,83869.4,11416.3,26774.5,61629.8,170951.3,27378.8,29137.3,0.0,19467.8,
223,0.339,13024.2,18566.2,19008.5,14022.2,20692.4,23824.5,22619.7,17552.4,31896.1,12923.9,12917.5,110128.5,32004.3,6725.4,29352.2,97530.8,67521.3,19956.0,13033.0,0.0,20977.7,
224,0.468,28837.2,45934.4,58183.3,62334.5,34130.1,41036.9,48059.6,34887.1,43338.1,69454.9,35359.2,77941.4,74078.1,32808.9,32522.0,34717.9,108451.8,50608.3,58577.2,0.0,34493.5,
225,0.532,23574.1,23879.1,22723.0,30767.3,24807.9,24785.4,26075.3,19696.4,34455.9,92011.4,24608.1,183028.2,136346.4,14859.8,39096.2,103873.7,287195.5,42551.2,51579.6,0.0,28264.6,
226,0.599,20481.8,25846.8,33106.0,36979.9,35358.7,42746.9,45194.0,25122.9,44233.4,35949.0,14653.8,113213.0,53075.7,15561.5,31683.6,80325.4,131805.8,34473.5,28370.3,0.0,11596.8,
227,0.66,26668.2,32129.2,29460.8,30506.1,36919.3,38369.1,35959.4,35248.0,52679.3,50269.9,23922.6,115719.3,43473.0,23470.3,46620.1,63266.3,58603.4,40525.6,43758.0,0.0,41792.0,
228,39.62,23969.2,55076.4,52448.0,26926.6,32637.4,31388.3,30161.2,21495.6,27326.5,22963.7,14622.2,38098.8,22411.3,17967.2,14908.6,21984.4,21903.2,28674.7,29268.0,0.0,24342.5,
229,0.374,11839.0,13307.0,13931.6,12829.2,15334.8,19165.5,20296.4,13090.8,27797.3,14211.6,6846.7,65850.7,27018.5,7415.8,15218.6,23757.3,21177.8,21392.5,11928.4,0.0,14715.7,
230,0.376,40271.1,48751.7,51288.7,46002.9,46354.9,53022.0,51281.0,42139.7,54375.0,55932.5,26887.8,135862.9,66751.5,27492.9,45302.7,43198.7,75521.4,52755.5,46743.2,0.0,19929.3,
231,0.303,18120.7,19477.6,19554.3,22212.9,21157.9,23310.7,26667.5,23514.8,40469.2,21734.7,17048.4,117578.9,40181.5,14957.7,41216.7,58132.5,48223.4,25082.8,17024.0,0.0,48601.2,
232,0.429,15130.6,18527.6,25357.3,29285.7,16526.6,23507.5,25063.4,12720.6,26793.2,47602.1,10744.3,84110.6,47290.2,9246.6,12216.0,24007.7,72695.4,30917.0,35767.8,0.0,32945.5,
233,0.359,11122.8,15987.9,18782.0,19454.1,15583.5,19652.7,20056.2,8499.9,21792.6,36294.4,9713.4,40850.1,38829.4,7146.8,8987.7,25769.2,71064.1,20919.6,22336.3,0.0,14760.1,
234,0.472,24331.3,33785.8,37831.0,36917.0,30438.5,37584.5,39502.2,23879.1,40961.5,47763.1,23079.2,74636.0,59747.2,17673.0,19329.6,35881.3,79953.7,44543.5,40718.5,0.0,46419.9,
235,0.332,13697.8,14819.8,15511.3,17446.6,16973.4,21790.2,20672.2,17033.8,27351.1,17958.1,14693.7,55022.2,28737.2,12478.3,19690.7,25025.3,39084.7,23140.0,16284.8,0.0,26584.2,
236,0.409,14079.4,17498.8,20430.8,14321.1,15570.3,19758.5,18924.6,17816.2,28403.8,25536.0,16629.6,109039.7,51886.4,12205.4,32273.3,58621.4,109562.3,22653.6,17709.0,0.0,21241.9,
237,0.401,15075.8,13618.4,12361.5,13827.2,15389.9,16661.8,15309.8,12817.5,17717.0,24371.7,21022.0,70184.9,40848.9,18747.8,12276.0,28230.2,89473.7,16794.1,16951.6,0.0,38908.8,
238,0.568,19578.9,19734.8,21118.1,24218.0,19015.3,18821.7,20796.9,17987.0,19882.5,53161.8,12765.4,88064.5,63488.0,13293.0,25152.0,39817.3,61904.8,33306.2,44804.6,0.0,20339.6,
239,0.287,9104.2,15614.8,17858.8,20019.5,18487.4,23141.2,24794.2,8281.2,24407.9,30765.7,18231.3,49145.7,40081.4,7517.4,18736.8,43358.7,22614.1,27526.7,31505.2,0.0,20084.0,
240,0.297,10596.2,14610.9,15006.8,16860.5,13447.0,14834.1,17066.4,13031.8,24808.2,30997.4,13798.2,67140.0,36807.1,10352.0,17200.9,33392.6,35822.2,23128.8,33080.6,0.0,19219.4,
241,0.32,10545.4,11660.8,12367.3,10293.7,11459.1,12361.3,11531.1,10169.3,12792.8,34185.9,11558.1,65250.3,35905.0,9761.5,13465.7,24547.2,49135.4,16083.8,21978.9,0.0,27715.6,
242,28.966,10807.1,37103.8,33173.7,16039.7,15178.2,18059.7,17605.7,10269.4,19967.5,21990.5,11533.2,30681.7,25176.0,5945.6,11449.8,25580.1,21921.5,18076.5,23204.0,0.0,16208.2,
243,0.31,15559.7,41238.7,34367.2,14826.6,20975.5,20994.6,18333.3,14291.4,18267.5,23862.9,15016.8,16375.6,20621.5,13679.2,14314.8,14889.3,17411.7,16083.5,24892.0,0.0,41184.0,
244,0.327,9670.8,33355.4,31525.3,20561.8,12841.2,14764.1,18093.8,13488.9,18703.2,26685.7,9236.0,19060.8,22172.6,11878.9,12886.5,12157.7,19596.7,20649.2,27023.0,0.0,18051.5,
245,0.244,6484.1,16670.6,15653.7,14867.0,12211.7,14737.3,14913.5,9256.4,16237.8,25491.8,9616.6,16278.6,24479.4,7748.1,10988.8,11175.3,20130.8,17330.9,23994.7,0.0,19494.0,
246,0.285,14573.8,31498.9,34080.6,23026.1,16567.0,21175.8,20761.0,10718.0,14804.6,23274.5,13684.5,15050.5,19366.7,11894.1,11203.3,13917.0,14124.2,20163.3,27595.4,0.0,32004.7,
247,0.27,7573.2,9682.7,8578.6,6180.1,7895.4,8262.9,7974.4,10176.2,13133.1,6433.5,7310.0,10747.9,9277.8,7323.8,8996.6,8798.2,8152.4,9556.0,4376.6,0.0,18510.8,
248,0.337,17656.2,32184.7,26332.8,19321.5,23535.9,25883.6,24552.8,17079.7,29524.5,18993.2,9370.2,27925.5,24178.3,10026.7,13331.0,16525.9,22036.8,22853.4,21633.1,0.0,19193.8,
249,0.57,10803.9,17158.2,18245.1,17092.7,12322.0,13545.4,15608.2,7001.8,12283.6,25353.2,15584.4,16820.5,17023.4,12135.2,12339.3,31933.6,19384.4,15326.0,27965.8,0.0,17435.8,
250,0.283,19207.9,27537.2,26246.3,20711.4,20869.6,19829.4,21102.4,18046.3,24462.9,16861.0,14179.4,42626.5,25855.8,11575.2,12055.3,25358.3,23845.1,20710.4,19480.2,0.0,23469.7,
251,0.279,13101.7,21314.3,25960.8,19130.3,17371.9,21796.7,23638.9,16647.6,26685.2,23153.2,20369.3,39365.8,24037.8,11294.6,32521.7,85162.3,35066.5,25844.2,20753.2,0.0,21216.7,
252,0.24,10474.2,18273.5,22254.9,22761.5,19270.4,26914.4,27872.0,19540.0,36612.7,23836.8,27624.0,165597.8,54832.9,10628.9,47886.5,165915.7,211428.5,28848.8,24525.5,0.0,19185.9,
253,0.263,12910.9,34020.2,28894.4,16898.6,18235.9,20243.0,19614.0,11776.3,18502.9,27710.9,12826.6,80879.9,33767.5,9127.8,24722.0,88682.7,78883.6,15468.8,18181.6,0.0,33244.9,
254,0.275,8913.3,31477.4,24881.7,7642.2,8439.5,8792.8,8394.8,9208.4,14149.1,14179.6,14377.0,25902.9,15875.8,9888.6,15734.3,22784.5,10558.9,11162.6,12890.8,0.0,32825.4,
255,0.321,30364.1,62549.0,51786.9,23671.8,35573.6,34804.2,27735.0,27071.9,26554.5,23548.1,27735.6,23696.2,23636.9,27622.3,27097.5,24422.5,19815.5,23210.1,29469.0,0.0,29822.8,
256,0.464,16363.4,37188.0,39830.1,20178.0,20783.2,21455.8,22366.7,14939.0,20788.4,22741.7,16877.7,27222.5,23999.7,15474.7,17603.7,21898.0,23376.0,20836.4,22167.3,0.0,31447.4,
257,0.289,22984.7,50185.6,57478.2,33203.9,26925.0,31937.3,33587.3,19811.4,22573.5,30599.2,19611.3,20677.7,26715.2,20135.4,20207.7,19344.7,25515.9,29408.8,37657.1,0.0,71036.3,
258,0.59,7409.8,13459.5,10920.1,12274.6,8748.6,8483.6,8817.2,11259.1,13722.1,15647.1,11134.3,16260.8,17000.2,9551.8,14875.6,12042.1,14076.4,11500.7,18463.7,0.0,21248.7,
259,0.322,11103.8,24097.3,19037.1,8797.6,9766.3,9018.9,9027.7,8507.5,7778.8,14913.9,11913.6,18543.3,14014.7,11918.3,12472.5,18669.8,16779.5,9793.6,12869.5,0.0,36572.0,
260,0.265,7950.6,14340.9,18060.3,22164.3,12350.0,16318.7,19619.7,8653.3,15263.0,17632.9,26553.8,105716.7,24835.5,8896.6,38936.5,196408.5,98365.2,17781.7,18580.8,0.0,16071.1,
261,0.268,11835.0,21228.1,18680.8,10695.8,17429.8,19187.2,16770.4,13479.9,22030.5,12850.5,8220.8,86864.3,21014.0,7805.2,16451.7,50388.9,67576.6,13858.1,14343.7,0.0,17589.4,
262,0.415,12051.2,14437.9,14168.7,16992.0,13881.4,14990.5,15953.5,13975.0,13580.3,19804.2,30082.7,135962.8,38969.6,19566.2,44594.5,93200.5,93667.9,14651.3,15969.3,0.0,25450.0,
263,0.275,29899.9,42461.6,34531.9,28126.7,43675.8,49082.9,42144.9,38379.8,57006.6,23496.0,18973.5,85251.7,35814.2,24109.4,28126.3,44322.8,61036.6,36425.5,21414.7,0.0,37015.5,
264,0.287,12941.3,17966.2,17562.3,14162.4,15943.7,16645.8,15282.4,16309.9,20806.7,20475.5,17242.1,61153.6,23832.7,11767.0,29039.0,47613.5,30303.8,18389.0,16467.1,0.0,23879.7,
265,0.752,18462.8,45900.1,50012.7,40663.2,22987.8,29384.4,34217.0,19891.4,25496.2,32723.5,21368.5,40233.4,35951.8,15557.3,25819.7,51347.3,34193.6,32840.7,35104.2,0.0,48725.4,
266,0.738,14604.6,44270.5,43615.5,31301.8,19362.9,21493.1,24683.5,12214.1,17828.4,12176.6,7876.5,9662.8,13376.1,7654.7,9685.6,11622.6,9918.8,26193.9,22361.2,0.0,25675.9,
267,0.99,12339.7,23455.3,26126.3,88561.9,19399.6,20803.1,26217.2,18905.1,19754.6,17473.6,9119.4,43761.7,27751.4,7640.7,22401.6,45311.8,44140.7,52147.6,25716.5,0.0,16694.9,
268,0.531,16629.7,25737.1,26005.9,26508.0,23764.3,25318.6,26892.8,23540.7,29305.8,22632.6,12484.4,19948.6,24212.3,11100.9,17291.3,47206.2,28014.7,27855.9,22737.6,0.0,18507.3,
269,0.383,9476.5,35350.7,29828.7,14640.8,9373.9,11948.7,12723.0,6980.8,8403.0,16146.3,6536.5,9995.5,13213.1,8114.1,6862.4,14068.9,14357.7,10286.1,19278.7,0.0,13472.0,
270,0.303,14057.9,28192.8,25609.7,15476.6,14053.4,16541.5,15481.1,15375.1,14800.2,12841.4,13321.8,31259.6,15063.2,11514.7,16463.8,42640.4,32586.5,14164.5,16877.1,0.0,20457.4,
271,0.362,126849.2,23653.4,18075.7,27064.1,477136.5,16907.8,20059.3,9212.3,17531.0,23378.7,16172.8,52286.2,27616.9,13285.2,12524.1,57588.3,35718.2,24758.2,29342.8,0.0,32991.1,
272,0.335,27551.4,47452.6,44303.5,16016.8,23232.0,25690.5,24573.1,18677.4,26405.6,15986.7,12833.7,31875.8,23940.6,13122.2,21173.3,24074.3,19218.7,21971.8,11676.3,0.0,31659.6,
273,0.338,15695.7,43602.0,40017.9,22519.1,25768.7,27051.6,25975.5,19593.8,29507.2,14984.9,10385.1,24551.9,20781.1,9534.4,12770.0,16883.3,15232.2,24066.6,25656.8,0.0,24746.1,
274,0.493,23621.0,40120.4,39130.0,39544.6,28128.1,30103.0,34723.7,25278.3,28943.8,31163.9,23117.3,38672.5,23053.1,22373.4,22946.2,52680.7,37143.1,30139.0,37386.6,0.0,16969.5,
275,18.157,11336.9,35571.6,31223.4,17949.9,13887.1,16191.9,17012.1,7396.8,15334.5,19024.6,12389.8,82222.8,29894.2,6220.3,12708.0,60934.8,58553.2,19392.5,18668.0,0.0,21029.1,
276,9.006,14275.9,99981.8,89659.6,23604.3,24767.5,30485.3,29879.5,13001.7,15250.2,13103.5,12741.9,15437.0,12107.1,11581.1,13445.1,15121.1,13650.9,13507.1,17149.4,0.0,12142.6,
277,0.376,11549.4,20938.9,22923.9,13475.5,12425.3,15987.8,16240.9,8139.7,11263.0,17723.3,6890.6,14601.9,16198.3,6853.5,6203.1,14572.8,19444.8,16295.6,15038.7,0.0,23878.3,
278,0.372,16920.9,41856.9,38054.6,28592.5,20903.3,25951.4,25026.1,17532.1,24545.3,25695.6,11814.7,25791.2,30196.0,11581.1,13401.4,8709.7,25133.8,23483.5,21541.7,0.0,22151.1,
279,0.476,24281.2,27467.5,29932.7,20074.7,18131.6,18555.3,19364.3,15312.9,14432.0,22853.4,14457.0,35878.1,17754.4,16134.0,15689.0,36536.3,22571.7,15276.8,24375.1,0.0,42350.9,
280,0.384,13334.7,29425.2,31091.3,29612.5,17011.5,20219.3,23497.4,20839.4,26873.8,30184.6,24068.0,62594.3,33871.9,17022.4,31123.9,50409.9,38109.1,29791.9,29084.3,0.0,23500.9,
281,0.372,28501.1,32958.8,41041.0,38389.3,47019.7,58039.9,56761.1,39977.9,67730.2,22939.7,13137.3,57143.7,39327.8,19144.5,21673.3,57537.5,60469.3,48263.7,35161.9,0.0,46850.4,
282,0.409,26393.5,54763.9,54083.5,27835.9,29800.7,30717.6,31075.7,26886.1,41226.0,42452.5,26424.7,145361.2,53970.9,19264.5,50484.2,140243.8,130019.9,31883.7,34509.0,0.0,51022.9,
283,0.341,26387.1,40989.9,33324.2,20517.6,27518.5,29545.0,25530.2,20440.6,27223.9,11274.3,14336.0,29804.6,14183.4,12195.5,8540.2,46871.8,40647.2,15009.1,17103.2,0.0,24495.0,
284,0.566,33448.2,54818.9,51951.4,29465.9,35668.5,35493.8,34668.1,29034.2,35613.1,24458.8,28159.9,85186.3,36393.8,22373.7,41892.4,85088.8,74112.9,31609.4,22089.8,0.0,23493.5,
285,0.314,5743.6,18212.4,18222.3,14624.2,9496.1,10436.3,11369.2,7323.8,13613.2,24017.9,13304.5,57013.0,24800.5,7159.1,13079.6,54692.2,90235.0,12950.7,16944.9,0.0,29546.0,
286,0.352,23684.9,37505.1,29593.4,15794.0,17288.8,16451.7,15067.1,10872.5,14466.7,16162.7,9885.1,33410.2,18926.9,11699.1,10882.1,14699.0,23453.5,13507.7,19982.3,0.0,40967.3,
287,0.254,12330.9,16861.7,16849.4,13226.2,11714.0,13228.9,10531.1,8326.5,9228.0,23370.1,8526.7,62054.2,38847.2,9880.5,10005.7,21061.7,129556.7,10967.4,13146.7,0.0,27101.7,
288,0.256,23101.1,28737.7,34726.1,27881.4,30434.4,38409.6,36365.6,28878.5,44235.2,37201.5,36903.9,192599.2,69927.9,20920.3,63374.1,196866.8,195764.9,33891.9,26655.2,0.0,44539.6,
289,0.492,13912.6,19381.1,18466.8,11544.2,15973.7,17591.2,14253.2,14957.8,17119.3,9020.4,17373.2,25507.6,10701.7,14232.6,18459.1,26863.7,10243.5,13134.9,13881.4,0.0,13665.0,
290,1.915,12674.9,58371.8,65996.7,32642.8,22907.8,28386.3,30709.7,11029.9,21331.9,17737.7,10539.3,15373.2,18937.6,8937.7,9716.4,8993.5,23687.9,23659.3,20454.9,0.0,18024.5,
291,37.389,21872.0,119903.3,106471.7,19653.4,27550.3,36197.1,28877.9,10693.1,14763.7,23442.6,11287.6,14990.6,18324.5,9284.5,8726.6,16098.0,17857.1,15878.4,20605.6,0.0,26662.3,
292,0.369,14526.8,20929.0,21020.6,18028.1,11774.2,11628.0,14397.8,9030.6,13338.7,20770.7,9117.0,17914.0,21605.0,6528.6,9366.2,16985.9,24651.5,14877.3,16147.0,0.0,25141.4,
293,0.294,13604.1,23251.3,22992.0,22429.7,11240.3,12297.3,16684.3,8633.1,14706.3,23306.2,8607.4,39539.0,27243.8,9404.0,8544.6,17716.2,19276.0,17779.0,25980.8,0.0,26967.0,
294,0.381,12136.9,24070.5,26906.1,27182.1,13372.5,17712.2,21452.8,12889.4,21570.4,33191.1,12877.0,32755.2,26492.8,9628.3,18541.9,24237.3,25158.4,25173.6,32013.2,0.0,9861.4,
295,0.241,13390.1,21808.1,27022.5,19814.3,22850.3,25571.3,26089.2,20390.2,36702.6,20405.3,13863.6,88375.2,36274.7,12515.5,27692.8,60651.0,60824.3,32006.6,18825.7,0.0,15846.0,
296,0.266,12995.5,24852.7,27463.7,25544.3,21388.2,23625.3,23991.5,16139.3,33006.7,29646.3,21964.9,156815.9,63119.8,9404.8,41231.3,119550.9,74841.3,30900.6,28790.1,0.0,33583.0,
297,0.262,8853.8,15093.1,20097.1,19890.1,9215.9,13046.2,12905.2,5802.7,8982.3,24011.2,26895.6,108776.8,17828.3,8881.8,41174.4,168170.9,89909.2,10678.8,24043.0,0.0,18672.7,
298,0.396,10131.5,8790.5,14059.5,20958.1,10454.5,13968.6,18910.5,14189.8,31730.2,29935.9,25356.7,245674.6,66883.7,12685.0,57832.0,192766.6,132969.4,25803.7,21865.2,0.0,43706.4,
299,0.664,24672.8,35044.7,28942.6,18757.6,31787.8,31602.7,27277.0,28061.7,41532.0,20800.9,25961.7,129874.1,27627.7,20673.2,43729.9,90895.9,66295.3,21002.9,15974.3,0.0,22631.9,
300,0.306,17260.7,28758.8,31078.7,26614.8,28419.7,32617.9,31940.1,14802.3,26380.5,17465.9,12286.8,63160.5,16652.9,12075.6,13502.0,83429.4,93251.6,20339.8,20241.0,0.0,27408.1,
301,0.247,10829.5,14179.3,14536.9,13574.7,16329.8,18282.0,14727.2,13427.0,15537.1,7214.4,12157.5,14579.4,11016.9,11042.7,13128.5,13842.9,12962.8,12450.2,10523.2,0.0,17089.2,
302,0.232,11247.0,17245.1,16665.9,15468.0,10637.2,11634.5,11763.1,9087.8,12745.5,12247.5,9956.9,9677.8,9110.6,11023.6,6815.8,7183.8,7243.4,9161.3,15193.0,0.0,29152.3,
303,0.309,10766.2,32374.8,35418.8,26110.6,15622.2,16649.9,19600.4,6421.4,11286.8,22730.0,6315.6,13762.4,15625.6,6948.9,4619.6,7137.3,13207.8,15630.5,26884.2,0.0,25384.5,
304,0.365,12689.5,16182.1,15076.7,18789.4,12445.1,12814.9,14556.8,12501.3,17067.7,24404.8,15496.8,31493.6,25047.2,12324.0,16708.7,40159.7,30194.1,17040.4,20927.9,0.0,19499.2,
305,0.321,14396.5,21815.0,22498.4,15709.1,16533.8,21037.1,21354.3,11478.7,18489.5,19535.5,20857.0,42215.6,21162.0,10561.7,19209.2,70487.8,44928.2,15840.9,17535.4,0.0,35186.2,
306,0.292,24224.3,24875.6,28367.4,39527.8,27432.5,32908.4,35532.3,27676.0,34747.4,52921.9,36795.3,106010.8,55714.9,26769.7,49960.9,116167.8,68015.8,40435.2,49655.0,0.0,29930.5,
307,0.267,7384.9,8120.4,9234.9,11585.6,10252.7,12831.5,12861.6,8163.7,11218.2,12540.4,10524.8,25806.2,11771.8,6851.9,9788.4,13927.4,18327.9,11762.9,13216.8,0.0,12716.7,
308,0.305,9020.8,12450.7,17580.2,16857.5,11965.4,10655.6,11620.0,12392.5,12607.6,24482.5,10405.1,9801.7,16949.2,11301.7,16488.9,12673.8,15902.2,14558.0,22909.4,0.0,19694.0,
309,0.234,10022.3,12982.5,8726.5,10906.4,7046.8,7673.9,8499.1,7176.1,9411.8,8675.5,9638.0,20722.0,9859.9,8957.7,8820.1,14555.6,11039.6,8877.6,9926.0,0.0,27801.5,
310,0.301,24596.5,28288.8,31863.2,38973.7,30656.6,31107.4,34306.8,26239.7,36814.5,37137.3,20998.8,83917.8,45690.0,24280.7,29777.3,59672.4,74561.0,36398.9,37152.1,0.0,33037.0,
311,0.352,29841.3,35313.3,35630.6,39464.7,34014.5,37746.2,40023.1,36458.1,38330.2,65650.6,43401.5,103004.1,63724.4,33639.4,47764.3,100985.8,116211.8,43699.6,54092.6,0.0,27488.7,
312,0.281,8905.3,19905.0,24233.4,16549.7,12517.7,15776.0,16283.8,6789.2,13215.7,13204.5,27925.9,79615.1,14202.0,8920.1,35581.7,129530.6,31113.9,13774.7,14667.5,0.0,16938.6,
313,0.349,14254.9,27268.6,27902.2,14750.0,21212.4,22056.2,22016.7,20860.6,28878.9,16239.7,17674.0,148324.9,38708.8,15108.3,38606.9,64707.0,58403.4,20484.3,14698.7,0.0,27845.8,
314,0.263,9895.5,19114.7,18611.6,14852.0,14180.6,15157.1,15584.3,13030.7,25292.3,15020.4,7216.0,112648.7,36865.6,7483.4,18592.3,33553.4,57374.2,17157.9,17835.4,0.0,18652.4,
315,0.234,4138.6,4970.9,5019.8,9597.3,6549.1,6427.7,5563.8,10100.7,14439.8,28043.9,23057.6,126004.0,38424.1,6102.6,48721.9,170248.4,95577.6,10862.9,23000.8,0.0,13235.4,
316,0.229,10655.3,15846.9,13336.3,14662.5,11939.2,11096.0,10433.2,10420.2,12782.9,17171.4,21358.7,102240.3,30028.5,10523.0,34292.2,89441.7,78347.0,10505.7,15483.4,0.0,16327.6,
317,0.202,13113.0,17629.7,24683.0,27749.9,16189.2,22429.1,25902.5,17077.7,25607.0,27386.9,12500.9,88857.7,25937.1,10978.6,31228.9,45430.0,20102.6,23097.4,30765.0,0.0,27761.2,
318,0.272,14289.8,18028.2,15520.1,17620.0,16849.9,19021.2,17980.6,13372.7,18119.4,21968.7,7212.3,23813.3,18951.4,6820.8,14129.3,15086.5,17112.5,16650.1,23173.2,0.0,25285.6,
319,0.234,15019.0,20711.7,20619.9,20036.8,20081.6,23299.1,23234.7,20373.3,25535.8,27314.2,16182.1,26350.9,29946.3,15541.8,18739.7,18752.1,30881.6,23333.8,27038.4,0.0,46718.8,
320,0.504,29186.8,36016.0,40669.5,44285.2,34694.5,38625.6,40407.5,37185.7,50065.1,31271.8,30387.5,55292.7,42514.3,32725.3,41960.6,25871.5,35494.7,43247.7,37893.7,0.0,35181.5,
321,0.211,6915.3,8406.5,9284.1,9738.8,7869.7,7310.6,7836.3,9356.2,13421.9,8658.8,26640.3,51036.9,14149.2,11554.0,26880.1,87787.8,21209.8,9479.2,7291.2,0.0,24459.3,
322,0.213,12561.9,16751.7,18488.4,12839.8,15554.7,16951.7,15284.4,16147.7,20194.0,10620.8,14690.7,34986.6,14998.3,11852.9,19453.1,25855.6,14705.6,13059.3,11007.3,0.0,46192.3,
323,0.231,6756.4,8816.4,10588.9,7579.6,7989.8,8104.0,9214.4,7652.5,12454.7,17061.8,11540.3,26839.8,15599.1,7358.6,15864.7,28540.2,17100.3,9498.1,14596.4,0.0,16373.4,
324,0.247,10643.3,11779.2,13277.2,13458.2,10719.7,14279.4,17653.9,10307.3,17783.1,25729.4,14473.2,24100.9,20211.9,11445.1,12020.6,18564.6,19571.3,15530.7,22489.9,0.0,19975.6,
325,0.254,13136.7,15016.5,21331.3,23567.0,11490.0,15267.0,19193.0,11057.0,19007.0,17509.3,9890.9,23576.6,23503.2,11954.9,13485.6,17896.3,21628.2,19448.3,21111.4,0.0,30989.5,
326,0.322,10101.5,15955.7,21610.4,22083.0,15664.3,21872.3,24533.0,10782.8,20826.4,14671.1,13582.2,60982.6,17932.1,10076.8,14005.2,60184.4,16330.0,19768.5,13838.2,0.0,24168.3,
327,0.261,17075.0,20783.5,16129.5,11899.0,21302.6,20942.3,18955.7,14742.4,25978.1,15399.2,7754.1,82194.9,24488.6,10769.1,25557.0,74889.5,51606.6,16232.4,15530.5,0.0,20736.2,
328,0.211,14062.7,18801.4,21329.8,25597.7,20730.2,27473.8,28447.8,22941.7,45308.4,33310.3,19253.2,132058.5,34341.3,13675.7,50657.0,91868.0,22642.0,34274.0,31836.7,0.0,28815.1,
329,0.244,14294.3,22033.4,24087.7,22987.9,20546.9,25150.6,25855.8,17573.8,33161.2,11583.2,16790.4,124017.7,24641.4,14129.4,39094.8,69748.6,45312.0,22445.2,12637.3,0.0,26255.4,
330,0.246,15305.1,21724.5,18985.2,15445.0,17348.8,22028.3,20084.3,12937.4,31257.4,30214.2,5950.2,78286.7,31654.3,7279.8,12458.7,22273.7,54295.9,22646.1,19772.6,0.0,19153.9,
331,0.429,24114.3,44430.5,38576.0,16936.3,33694.8,35658.4,27624.9,26477.4,41622.1,31194.6,21412.1,162429.1,44710.9,16399.6,47275.9,140480.1,122013.9,24732.8,18704.4,0.0,33094.7,
332,0.297,21973.8,46586.3,41029.1,25784.5,34704.1,41843.4,37738.5,22209.0,37068.7,30133.0,7390.3,86058.5,34765.1,11101.1,15996.9,55306.8,86218.9,28411.5,25175.3,0.0,26118.9,
333,0.231,10230.0,10842.4,8252.1,9489.1,11063.6,10493.4,10978.2,8642.4,15231.8,16158.2,8692.1,46163.5,19018.7,6815.3,8501.3,14968.7,19814.9,12311.3,17366.8,0.0,21617.9,
334,0.467,23319.7,37590.3,36203.3,24847.7,31176.7,35270.3,32665.1,30458.2,44354.8,29570.8,33477.0,167064.4,71013.9,21884.5,47583.1,82029.3,143607.2,30286.5,19952.9,0.0,42799.6,
335,0.234,13562.6,22995.9,21906.3,17049.5,51986.4,25800.1,24604.4,13147.0,28452.1,20671.2,17783.1,154094.7,38645.7,6754.2,30133.0,97378.6,133944.9,20372.6,19554.1,0.0,17960.6,
336,0.271,8473.0,18948.9,17303.8,14497.8,9035.8,10774.2,11662.4,5501.8,9630.2,26225.8,22126.1,125957.3,27987.4,9189.6,27446.2,114844.8,102965.2,9739.9,17712.1,0.0,47807.7,
337,0.464,28002.0,32068.2,32702.3,27525.4,28633.4,30879.2,29845.1,22273.4,31003.1,21558.2,39670.1,133091.4,26531.0,24107.5,60595.1,161885.3,79090.0,22798.7,22041.7,0.0,32352.2,
338,0.313,14899.1,22740.8,21287.7,22055.9,18494.6,20829.5,20204.1,17084.2,22413.8,20567.7,16757.7,32665.4,14697.3,14737.5,18108.3,35209.8,10771.4,17151.2,23491.4,0.0,43461.1,
339,0.321,18244.2,26435.6,22524.8,18248.4,16977.0,17963.3,18897.8,15798.0,22576.4,33018.7,12708.1,87659.9,41803.0,12762.4,20417.9,52510.8,97723.0,22498.3,24062.4,0.0,18637.4,
340,0.325,10300.4,19396.8,18138.5,30249.5,11701.1,13582.6,17875.5,13172.8,15021.1,80439.4,23560.0,103734.9,83314.7,15342.4,23638.2,66900.9,244554.3,26377.6,43134.9,0.0,19645.3,
341,0.34,14196.1,17024.8,21985.0,16415.5,17125.7,19950.1,20564.3,19544.7,31319.4,34951.2,8081.7,68870.1,45219.7,10277.7,24415.1,24665.6,84125.0,27928.9,19470.9,0.0,11255.4,
342,0.282,20535.4,21548.3,28167.0,27922.9,18127.4,21595.4,25800.3,10739.7,21007.9,27040.1,15602.0,39373.8,31778.2,14627.8,15108.2,21826.9,37251.6,26848.8,26033.3,0.0,26910.1,
343,0.273,11935.5,12862.0,16741.4,23234.6,14515.4,16275.1,18241.6,14336.0,20030.0,15876.8,12361.6,17456.7,15017.3,12262.2,14746.3,13507.2,16820.4,15888.6,18968.9,0.0,45994.4,
344,0.257,8143.4,13185.7,12505.4,9716.0,8542.3,8257.9,9434.9,9214.8,8190.0,13611.9,10248.3,9685.4,12491.9,8024.7,12117.5,11611.7,13380.5,9946.5,10895.8,0.0,21252.4,
345,0.494,23026.9,31477.4,27732.6,20438.8,22835.4,21724.0,20531.1,23809.4,21960.1,30763.8,24339.3,21415.4,28548.6,24428.6,26380.3,21394.4,24080.5,21446.6,23962.7,0.0,23824.3,
346,0.422,7604.7,8527.2,8922.1,9390.7,8363.6,10135.9,11459.3,9764.3,11953.5,9665.9,6856.8,7267.3,8801.5,6706.9,8493.1,8332.7,7237.5,11449.7,9619.1,0.0,13289.8,
347,0.33,11082.0,14891.6,15496.7,15269.2,13016.8,15654.7,14315.9,11821.5,15288.1,13509.7,10391.8,60567.6,21955.0,9068.6,14936.6,50062.9,47231.1,16561.0,14076.1,0.0,31459.8,
348,0.284,22794.8,29351.6,30340.0,19474.8,25525.1,29406.6,28490.6,20889.5,33113.0,23009.4,23083.8,116526.0,27812.2,20312.5,25438.9,100771.3,89206.8,19682.1,12564.6,0.0,39863.2,
349,0.304,20026.4,39139.6,38692.4,22477.8,36846.2,41568.0,40664.4,26468.4,48431.4,30141.6,16595.5,66406.0,26459.0,13821.4,27216.8,44940.2,47774.1,30850.2,19864.8,0.0,35496.3,
350,0.221,17675.0,15144.2,12939.6,11798.8,17156.2,18384.9,16858.0,16940.1,17625.2,17009.3,22045.2,29441.5,23691.5,22314.7,17867.7,45551.1,32919.9,17074.4,16570.2,0.0,36668.8,
351,0.282,20891.4,25548.8,26264.1,14847.5,23085.6,24888.0,20966.7,17174.8,27692.3,9578.5,17686.9,69686.0,16426.6,13451.4,20974.3,60988.4,42471.1,15581.7,7233.0,0.0,18193.2,
352,0.214,12388.2,16342.5,16225.9,12350.2,14251.5,16384.3,15384.5,9025.3,18639.5,10976.5,9404.2,114671.6,19811.4,9031.3,26204.1,75977.0,64358.2,10744.6,9746.1,0.0,16292.5,
353,0.266,23104.6,21544.2,24458.0,9273.5,22447.8,25364.2,20813.9,10359.8,19559.9,22040.8,8865.9,134679.1,44163.9,7588.8,18829.3,110758.6,154304.4,10134.6,3535.0,0.0,12415.7,
354,0.306,21950.8,30402.2,42035.8,37966.8,34874.8,43211.1,41942.2,23555.5,45534.8,37915.3,25925.9,108610.2,49769.3,18209.3,38327.3,106220.3,46207.0,44599.2,41161.1,0.0,32311.0,
355,0.491,17401.7,32152.8,39271.1,30910.3,24691.8,30165.0,33844.1,20345.4,33390.6,24979.1,19503.3,57447.5,26221.8,12460.6,21185.1,62056.9,48759.4,31775.3,26491.5,0.0,14737.7,
356,0.293,13115.1,25845.8,32377.8,26357.6,19294.7,23971.9,27987.9,11901.7,29863.5,28918.9,11351.1,49792.1,41286.9,7102.4,11553.7,28062.8,40709.3,30140.0,25570.6,0.0,32357.1,
357,0.319,32585.3,39041.6,47224.8,44422.2,32362.8,46265.7,47090.0,17200.5,38243.3,30474.1,14255.0,70000.9,34679.2,9512.0,26871.8,126074.7,50083.2,43847.8,41026.5,0.0,31718.2,
358,0.261,15505.2,23402.7,30622.3,35753.5,26158.9,35617.9,39862.7,27371.2,41921.6,26666.9,28637.6,174038.7,54340.1,19302.3,64857.1,154751.3,83760.1,37830.5,27123.0,0.0,17559.5,
359,0.225,22761.2,19604.6,24145.8,25012.8,20198.7,20108.1,22152.0,17728.7,23197.3,30606.6,10572.8,92356.1,44739.3,12852.4,22934.5,45989.5,60417.0,27809.5,26780.9,0.0,27320.2,
360,0.236,15255.4,16784.9,19950.4,14079.9,16580.7,20923.3,19230.2,14038.1,21421.9,16225.1,19874.9,47919.1,19449.9,15403.2,16416.6,58247.6,38647.9,14004.2,17339.2,0.0,37224.5,
361,0.221,10925.7,17110.4,22550.8,28247.4,13369.1,17682.4,21210.6,9390.6,19973.2,25797.8,12228.2,39399.4,20765.4,6829.5,16139.0,69332.0,46230.3,22175.9,29006.4,0.0,25241.8,
362,0.297,10472.9,17815.6,21869.0,20232.6,21088.7,30688.2,27627.3,17655.7,34137.5,19705.7,21066.7,69917.4,16625.3,11957.6,35077.9,108728.5,56612.0,24315.1,18378.0,0.0,16000.8,
363,0.21,20978.2,27912.3,25784.7,25682.6,28657.2,31959.5,31336.5,26268.6,44001.9,31862.4,24479.6,206740.5,67841.7,17446.4,52947.9,135028.9,181969.3,33222.7,19755.1,0.0,32468.3,
364,0.294,15637.9,23749.6,31296.9,39622.8,26508.5,33861.0,38062.3,29197.0,45149.5,69233.2,15292.6,194271.1,110527.1,13928.2,39292.2,104621.8,212445.7,46999.5,49613.7,0.0,21569.5,
365,0.36,26856.9,30751.4,34254.5,37137.4,30850.1,33838.1,32096.4,25867.4,39513.5,47537.9,38156.0,197764.8,95676.7,23048.8,51470.7,144988.8,188614.4,36377.1,32834.1,0.0,33011.4,
366,0.299,8157.2,16846.0,26794.9,31506.2,16876.4,24935.9,27581.1,11341.5,17863.5,23495.6,19409.5,41495.1,29148.2,11383.9,23538.6,82937.0,18692.1,24503.8,22335.3,0.0,18077.1,
367,0.199,10584.9,8861.6,8961.9,10896.7,9338.1,10216.2,8228.1,11602.4,13782.5,15084.5,19656.2,46301.6,30495.4,17489.4,21089.2,19378.5,23094.7,12240.8,15218.3,0.0,31495.9,
368,0.254,7340.0,15546.0,17664.7,18037.9,12627.5,13983.7,16369.7,8761.2,17239.4,23819.4,8923.3,22636.9,27629.6,7982.5,8411.1,15470.1,22972.0,20152.8,24728.7,0.0,29653.7,
369,0.226,10421.1,15845.9,15386.8,13204.4,17533.9,10609.9,11854.0,6522.8,9291.7,18356.8,6646.5,11073.1,11698.6,5477.5,5854.2,12651.6,15672.7,11797.2,15285.2,0.0,18375.2,
370,0.228,20944.0,29994.1,30505.3,24413.3,31749.9,34572.0,33019.0,28682.4,40662.6,30657.9,15581.4,125210.8,46722.2,18475.0,36531.7,100293.9,134877.1,28465.1,20498.7,0.0,34143.0,
371,0.237,13586.9,11095.6,15720.1,24086.3,15691.3,19294.0,21863.8,14245.8,25935.5,25792.1,10524.2,25804.7,20847.5,11121.7,13488.7,21156.1,19512.5,22166.6,24146.2,0.0,26824.1,
372,0.29,11437.6,10444.7,13293.6,17821.9,13750.3,13671.7,16026.3,11770.1,12321.0,14484.8,16404.9,13838.6,16017.4,12177.4,11726.4,22741.9,7115.2,14128.8,17508.6,0.0,38945.4,
373,0.227,11577.1,12860.6,17647.3,23183.8,10460.9,14029.6,15577.7,7537.1,11415.0,25453.9,7962.8,54212.1,23766.5,5029.0,12250.7,37478.5,54815.1,16807.4,20425.7,0.0,33491.7,
374,0.26,11924.1,14138.7,13069.4,10465.0,12197.3,12228.8,10609.4,11000.2,13158.7,12382.8,6353.7,12186.0,10883.6,7547.6,9600.2,6308.2,12965.7,9993.7,11238.8,0.0,18356.1,
375,0.514,21676.7,25252.6,25241.1,27923.3,29885.8,29941.3,30713.2,30686.5,39912.4,46161.2,37465.6,71776.5,52812.9,27792.3,45991.5,66078.3,44609.6,35980.8,37394.9,0.0,33323.9,
376,0.281,16178.5,19990.4,25192.2,30614.6,21551.1,24990.8,24516.8,22144.3,29814.1,30172.6,14101.8,72032.3,46791.1,14168.8,30205.6,79156.8,66253.0,30473.6,28491.4,0.0,33025.7,
377,0.191,7091.8,13536.2,14703.8,8488.1,14341.5,17682.3,15895.5,12178.5,19814.5,10773.2,8082.1,40126.3,12761.0,6623.1,13496.2,42367.0,34984.1,10668.6,6969.3,0.0,11951.1,
378,1.259,11123.7,13972.8,25038.7,29634.3,11934.4,17389.7,22837.2,7958.0,14929.6,24986.1,17277.2,22592.6,18501.4,11112.9,12740.0,31927.5,22500.1,20451.8,24466.8,0.0,27304.5,
379,0.616,14730.4,24796.5,26293.0,27132.7,21064.8,24521.2,26531.4,20999.4,32690.1,22434.5,12268.8,37187.6,23255.7,11825.9,22685.3,29454.8,23775.2,26342.8,27379.8,0.0,32055.1,
380,0.312,7987.2,8690.5,9069.5,12295.1,8372.8,8333.7,8534.4,8294.6,12380.1,17273.5,14134.7,24082.5,15065.7,10278.3,13262.6,16576.8,14039.5,11585.1,16657.9,0.0,26125.6,
381,0.33,28086.8,35818.4,32833.4,17950.7,26605.4,26072.0,27297.8,21505.6,24247.6,16723.5,21857.2,44003.3,18645.7,24920.3,19329.7,72760.8,27947.9,20787.7,19994.1,0.0,47007.6,
382,0.321,10068.3,16791.1,17825.4,16396.1,12024.6,14392.6,14397.0,11268.0,16613.3,17162.7,11964.0,24809.2,19179.8,8785.1,15559.3,42872.7,32762.0,13146.1,15087.2,0.0,20246.4,
383,0.219,12462.3,21800.8,18478.2,15571.5,13168.9,15996.8,14437.4,9683.1,13754.5,14346.6,7121.6,14379.4,14251.0,7708.3,10152.4,9138.2,12149.8,12919.7,14648.8,0.0,17119.2,
384,0.249,12545.4,16538.6,10334.4,12186.7,9975.1,8236.1,7933.6,10235.3,8073.9,15117.1,12291.4,14870.4,7396.1,12255.0,11648.4,11954.6,6903.5,6716.2,15225.5,0.0,36898.6,
385,0.216,9889.8,13082.2,14655.0,12451.6,14949.6,12060.3,11129.8,12381.8,13987.3,13117.1,9570.5,19367.9,13458.0,11400.9,11632.1,13056.2,14841.2,9258.9,14977.8,0.0,18314.1,
386,0.237,3237.1,3283.7,5526.5,7907.7,3127.9,4559.4,5098.1,3599.9,5090.3,13064.8,6748.7,10386.6,9895.5,4579.9,5812.5,9034.8,9997.0,7167.1,12830.2,0.0,12553.1,
387,0.285,10438.7,12026.6,14630.0,15017.4,12728.8,14523.3,13996.0,12819.6,20094.3,15136.4,10481.2,16388.7,18021.4,9897.1,13431.4,13485.4,11729.8,15549.9,15237.2,0.0,14835.4,
388,0.245,14830.5,13559.7,15204.0,13599.7,13578.5,14559.4,15573.8,11303.8,15503.7,14774.2,13454.7,16512.5,22004.5,12196.2,11206.3,15998.0,15222.4,17220.2,17725.1,0.0,20911.4,
389,0.356,23547.4,31166.8,32163.2,26956.5,29237.2,27980.5,26544.9,24130.3,24964.2,24128.3,17629.4,15774.5,18149.5,20271.5,17485.4,12329.1,17052.9,22472.5,31208.7,0.0,22714.7,
390,0.292,10108.1,13789.9,19587.6,17938.2,11393.6,14841.8,16781.9,11302.7,11035.6,16097.0,12078.6,10904.6,12795.6,10428.6,11366.5,13906.1,12529.0,17472.2,17215.6,0.0,46333.9,
391,2.373,5763.0,17915.6,15238.8,11706.4,8140.5,9654.7,10445.5,6883.0,10289.2,8376.8,8862.1,11070.2,9807.6,6910.9,8116.3,11245.5,11575.4,9766.7,8997.0,0.0,25122.8,
392,0.807,12963.8,29787.8,22096.2,22830.7,18370.5,18569.4,17019.0,18055.5,15147.4,13563.3,13169.5,14810.3,12672.0,10541.4,15520.4,27896.6,14515.1,14130.0,17533.1,0.0,29485.5,
393,0.313,6959.3,10714.0,9948.6,11570.3,11719.2,13105.1,10739.0,12563.2,20867.5,15679.7,5962.2,35632.8,19459.2,5522.5,13395.3,39131.8,27245.7,15609.5,14780.8,0.0,17839.7,
394,0.351,12716.0,18495.5,19922.2,27060.3,21974.6,26018.6,26785.6,17445.3,25852.4,19554.0,10157.0,66056.7,33312.8,8905.0,18943.9,68374.5,49097.5,28295.5,25831.0,0.0,25999.4,
395,0.473,13225.6,21550.7,28440.7,23938.9,18014.7,19963.3,20715.7,12461.1,22950.2,16600.7,14383.9,27391.5,16203.6,12831.6,14393.5,16260.4,21464.5,18925.4,18255.7,0.0,33541.7,
396,0.335,12243.2,16514.9,24084.3,25496.2,18509.7,23484.0,27329.1,18748.4,29568.0,39916.5,17623.2,47724.4,46062.1,16797.1,25702.1,44611.0,45999.2,33873.0,34675.2,0.0,31905.8,
397,0.376,13444.8,19227.0,23703.2,24149.5,19133.9,24723.9,26596.6,15739.5,25275.9,30778.8,12772.6,26014.5,31073.8,10085.6,14804.4,46268.2,30429.9,31426.7,36519.6,0.0,23263.8,
398,0.573,14959.8,18888.6,18604.4,14819.9,10646.0,12127.8,13347.7,10226.6,13147.0,9293.9,12403.0,13257.1,12363.4,10376.7,12325.9,13176.4,8718.3,11308.1,11714.2,0.0,29349.1,
399,0.607,18165.3,21735.2,21527.3,19508.0,13524.9,14624.1,17494.0,13270.9,16509.3,20659.8,16624.0,30064.4,20479.6,14186.0,20011.1,39099.1,23384.9,19380.1,22664.6,0.0,38340.1,
400,0.438,30772.3,48848.5,54193.3,33869.9,46855.3,53285.0,47909.7,38578.5,53226.0,24406.5,20330.4,57718.0,30776.2,21826.7,37996.6,93033.2,43231.4,43489.7,29884.9,0.0,24828.4,
401,0.366,20394.6,24560.5,27596.7,33983.0,28182.9,32977.6,34707.8,28426.3,46227.4,52379.7,25137.0,73418.9,57829.4,21682.2,22177.0,47533.6,82965.2,40248.6,41743.0,0.0,35279.1,
402,0.358,21638.6,33832.7,33727.4,20638.5,21131.0,23611.0,24921.3,18059.4,24160.4,13654.1,19584.9,23206.2,15919.2,20989.9,16754.9,12096.5,11329.3,20041.8,16749.8,0.0,35052.8,
403,0.683,12897.6,20961.0,19624.2,14860.6,15656.7,15226.5,14716.8,11014.8,12734.6,9752.1,9903.9,10651.2,9748.1,10302.9,10133.0,11580.8,11012.0,11252.6,12918.2,0.0,14582.3,
404,0.285,9079.6,16317.0,16936.5,12759.3,10465.8,10484.8,10582.5,10381.5,10659.9,15388.3,11789.9,12275.4,14822.6,11402.0,12045.5,7854.2,11288.3,10438.4,18941.4,0.0,12802.3,
405,0.364,8062.9,14470.8,17223.5,19656.7,11229.1,12426.7,13898.6,12034.2,16192.4,11613.2,11221.5,14375.0,11633.2,10647.0,14999.8,11931.6,9505.1,13174.0,14577.1,0.0,20341.7,
406,0.372,15213.3,29701.4,38622.6,32216.0,15622.4,21745.5,26270.7,10075.0,15969.6,23897.4,15372.5,13808.0,16365.0,10331.3,16505.3,29233.3,21907.0,22388.9,25849.5,0.0,44646.6,
407,0.682,9016.4,11527.6,11847.1,18940.2,9523.5,11713.1,12885.8,13633.2,17589.9,24564.4,21366.3,98352.9,30377.9,12308.6,35081.3,86858.2,90154.1,17459.0,24845.4,0.0,30952.4,
408,0.428,9980.6,13221.3,17970.5,15802.7,9586.3,11934.3,12634.1,12841.9,12154.5,27883.4,18030.3,11296.4,14955.7,11782.4,14682.1,15143.7,13760.2,13645.7,23639.6,0.0,26273.6,
409,0.322,10115.5,13333.9,17188.9,17467.4,12583.3,15130.8,16414.6,13812.1,15884.7,20483.5,13254.8,16790.9,16151.9,14399.4,12686.0,13772.4,15545.3,19343.7,18560.3,0.0,20235.0,
410,0.321,14579.6,22780.4,23469.6,26138.7,18616.2,21508.9,22470.3,11931.3,19465.9,26024.0,14539.7,20537.2,24297.3,10248.8,10612.9,19317.3,24887.2,25842.5,25409.7,0.0,38591.3,
411,0.283,13873.6,24224.5,24654.2,23757.7,25666.2,28485.6,30096.9,23500.9,32886.4,14357.2,13347.0,37206.2,19959.0,13526.8,23313.2,18390.1,20198.9,24913.0,15507.3,0.0,17073.6,
412,0.328,14916.1,15711.5,19043.0,20115.6,18311.0,21333.4,22498.8,17595.1,27190.4,17740.6,13509.7,23594.2,21111.4,13943.5,17167.9,13455.4,25728.3,20574.4,22535.4,0.0,25850.8,
413,0.344,9924.8,16507.2,21643.4,18051.3,13780.8,15242.8,16010.9,8961.5,15870.7,9260.7,6230.3,17195.9,13514.9,6339.3,7458.1,6379.3,13132.8,13866.4,14407.9,0.0,22281.1,
414,0.347,10253.5,12835.8,11734.6,5750.2,7481.7,6863.8,5813.6,8643.6,10592.2,4483.3,7553.3,7977.6,7461.7,8140.9,7944.2,5708.1,7362.5,4749.1,4119.2,0.0,17287.0,
415,0.405,8091.2,12467.4,12716.7,13244.7,10984.6,12559.3,12019.5,9189.7,15122.8,18033.8,10442.6,26683.8,18666.5,6487.7,12757.8,40442.5,34065.1,13519.7,14245.6,0.0,26532.4,
416,0.351,9381.7,8971.2,6832.2,12997.7,5306.4,5792.2,6964.7,9027.7,8694.5,11370.6,14982.5,15393.8,13720.4,12197.1,14933.0,12741.5,11479.6,10529.6,10105.9,0.0,28228.6,purple threads
417,0.598,10980.3,20819.8,23097.7,9684.0,13028.6,13734.0,12446.5,8364.5,10237.9,14085.4,9501.7,8537.3,12673.4,10659.7,9172.1,9636.3,12071.0,8969.9,15894.8,0.0,26708.5,
418,0.317,6515.2,14094.9,13135.6,65829.3,11383.1,10040.7,9566.8,10901.6,11195.0,6803.3,7800.7,13935.0,10846.5,6630.2,12371.0,8440.9,9644.7,17280.7,8534.0,0.0,11515.6,
419,0.76,20562.3,12414.0,13885.6,13541.8,15056.1,15059.2,14646.5,10855.2,16948.1,10882.9,9475.9,27874.7,16085.3,8454.0,14067.1,27874.6,26935.6,19297.0,11657.4,0.0,20529.8,
420,0.446,11244.4,13163.0,20427.7,21861.9,10243.9,10924.9,13177.1,13005.3,10795.3,16007.7,16473.9,17143.6,14688.1,11738.5,12280.0,12069.5,13439.7,15792.0,20130.4,0.0,43846.4,
421,0.405,30469.5,36904.8,40647.7,34302.1,30275.4,32308.1,33415.7,34394.2,35708.3,35192.1,36595.8,32970.1,37772.1,35168.3,32999.3,32965.8,32901.4,35979.8,36394.9,0.0,25763.2,
422,0.386,18350.6,17156.6,22382.8,15423.2,14695.9,17390.0,16542.5,15429.3,15870.4,13604.2,16223.2,27799.2,15747.7,18046.3,20789.1,26134.8,20733.6,14756.2,15562.3,0.0,36180.4,
423,0.335,12968.2,20637.1,23022.6,15899.4,13281.6,14980.7,16053.3,10383.1,13584.1,13772.2,6181.0,12619.5,18698.7,7807.3,9093.3,10380.7,12025.9,16237.6,14017.0,0.0,21288.9,
424,0.452,13486.4,26648.2,28010.4,12928.2,12846.0,14669.7,14870.9,11352.9,12859.9,9214.8,10585.2,15317.3,13175.0,8337.1,14090.4,10337.6,8620.5,11766.9,10261.1,0.0,22979.3,
425,0.392,14384.6,21494.8,24638.3,12391.4,12342.4,13477.0,12139.9,11122.6,10560.5,9483.8,12348.9,12228.0,11899.8,13527.8,11558.4,12112.0,13009.3,11992.0,9722.4,0.0,29230.6,
426,0.318,6527.3,18681.8,15855.8,9884.7,9985.6,10703.9,10859.9,8514.1,9856.3,9453.4,8650.7,8123.1,13180.3,6629.9,8647.2,8142.3,9993.9,9695.6,11242.6,0.0,23200.2,
427,0.572,16285.1,21879.1,24130.6,18961.6,19260.5,19262.2,20166.6,17533.4,24177.0,20616.6,13325.9,21538.9,22416.9,13073.1,15268.7,19360.3,26094.4,23815.8,23915.0,0.0,16848.0,
428,0.726,10512.4,12784.8,17128.8,11985.8,9314.6,11930.0,12321.3,8181.6,10537.6,15609.1,6133.9,45853.9,19445.6,6724.8,10013.2,41966.5,60375.6,11949.1,10315.9,0.0,22275.4,
429,0.29,15652.5,14575.2,14124.5,13038.8,15092.3,16598.8,15409.3,15378.2,21685.2,17520.5,13973.7,40229.9,19632.1,13838.4,23715.5,22960.0,16967.1,15945.7,16471.6,0.0,40874.7,
430,0.298,16766.5,8038.5,8535.7,9421.5,7866.8,8358.7,7620.0,7324.7,7860.2,5817.9,7153.5,7198.5,8105.5,6075.2,6851.2,8984.1,7163.3,6273.1,7102.3,0.0,15038.7,
431,0.318,12024.1,10742.7,15988.5,15647.3,11569.4,13239.5,15389.8,11501.9,15429.0,9798.6,7620.0,15147.5,9178.2,8425.3,12309.0,15107.6,11612.3,14298.4,11813.0,0.0,27798.8,
432,0.256,10762.8,10638.4,15389.9,25990.1,13115.2,18153.6,20792.9,12518.1,24603.9,24766.1,10230.1,23608.0,25844.7,8370.6,12067.9,16816.5,28324.1,24453.9,23517.4,0.0,19371.1,
433,0.372,11429.9,8267.0,9439.5,10454.3,8087.8,8807.1,8314.7,5875.5,8987.0,13158.6,7630.3,9240.1,11063.2,6791.9,6872.5,5011.2,8059.3,11171.6,11898.6,0.0,16813.6,
434,0.272,12046.1,13444.7,16923.5,20969.3,13526.3,14720.1,17260.3,9113.2,15648.2,26786.8,15630.3,18462.6,21185.7,12164.8,11944.6,16175.7,21035.0,18276.0,28149.1,0.0,41783.2,
435,0.393,24573.3,25686.0,25549.3,17284.3,23680.2,22010.9,18390.1,20748.0,20134.1,12183.1,15497.6,12757.1,14109.9,19927.6,13964.7,14404.7,12929.4,16409.5,13880.2,0.0,24904.6,
436,0.289,25674.1,17780.3,26973.0,35694.9,23490.7,27961.8,30271.2,17803.0,30129.6,36844.5,8915.4,55406.2,35549.7,10204.7,14921.8,67209.9,52641.8,37047.2,38621.5,0.0,20477.3,
437,0.334,24331.0,13887.6,16531.8,13777.1,14641.0,15491.7,15051.1,14464.2,19687.2,13992.0,8507.2,34037.1,16960.9,10532.5,16708.7,25011.1,26312.1,14773.5,13165.9,0.0,28258.5,
438,0.267,36976.9,17905.2,18390.4,20221.0,13270.1,12033.5,14651.1,12742.9,14120.3,18215.2,12697.0,15938.6,17225.0,11746.0,11422.8,11401.7,17720.3,16966.4,18010.2,0.0,36486.9,
439,0.325,49055.4,13835.4,22924.0,17772.3,13375.1,15306.8,17127.5,9884.6,17417.0,22215.9,6578.5,32835.9,22919.4,5798.6,11194.8,35486.1,24379.1,21134.9,18323.9,0.0,20616.5,
440,0.462,57073.9,21263.7,20013.8,14328.9,18921.2,19394.8,16400.5,17675.0,15679.9,14318.3,20893.6,17320.4,16359.8,19768.0,18245.0,28997.2,22561.2,12002.3,12738.5,0.0,45006.8,
441,0.385,50317.6,15879.2,19449.2,16590.6,11933.7,13465.4,12618.9,10125.8,14135.1,16707.5,8877.1,16780.5,12940.6,9335.9,7555.0,15136.6,29138.0,10412.1,18467.0,0.0,23605.6,
442,0.251,161857.8,13367.4,13714.9,20588.1,14630.6,15849.3,16800.1,14828.3,17332.7,28446.8,12593.7,19118.3,28133.2,12773.9,14517.1,14164.4,40192.7,22114.7,26568.5,0.0,34858.3,
443,0.337,144984.0,15630.3,16392.6,15144.2,14947.9,13895.7,13862.0,12370.5,14921.3,16236.2,7203.0,14809.0,16515.6,7149.2,10718.6,7473.7,13410.0,17508.3,17174.3,0.0,18662.8,
444,0.334,38919.9,11376.2,18185.6,21479.6,10093.2,13445.2,18178.7,6776.6,14809.2,17015.4,5100.4,13866.3,16584.5,4864.2,8617.0,8345.0,16475.9,17930.1,17016.4,0.0,15659.7,
445,1.258,90746.0,16245.6,16398.0,16916.8,14294.5,17622.6,17973.4,12946.4,19278.7,25168.3,8885.9,18930.8,22966.7,8067.8,14863.4,13269.0,18862.0,19178.2,25768.6,0.0,24069.7,
446,0.264,197661.8,9559.2,12009.5,13548.8,8539.3,10623.9,11440.2,10803.7,15342.9,14265.2,7551.0,17311.0,9928.2,9238.1,13301.6,8878.6,9063.7,9496.2,14689.6,0.0,19612.7,
447,0.271,191862.7,14431.8,12993.6,16266.2,15484.1,18147.7,16291.4,11833.8,14172.1,19320.5,8691.9,8765.7,14324.9,9940.2,7763.0,8158.1,9942.7,16048.3,20458.3,0.0,12562.7,
448,0.29,105409.6,16947.8,21389.0,19963.3,13384.0,16852.1,18065.2,10356.0,21450.7,18870.3,6799.6,22346.4,17738.9,5969.2,8408.1,20582.7,17951.0,18653.5,23416.2,0.0,22711.1,
449,0.377,11619.8,16744.1,18342.8,21771.6,15477.0,18259.9,20165.7,13331.8,21725.7,31393.3,12545.4,14204.8,26249.6,9673.7,9803.8,20895.3,26954.0,22233.2,29340.4,0.0,20924.2,
450,0.379,7479.2,11364.6,10563.7,8193.8,5010.5,4461.9,5650.0,5030.3,5691.0,10816.8,5627.3,11105.9,10967.0,4855.1,6718.7,10094.3,11230.5,7263.8,9230.7,0.0,16239.6,
451,0.43,16824.6,16509.6,17952.9,21585.1,14464.6,13308.2,15328.5,14062.5,16997.7,26506.3,14274.8,21475.4,30759.7,13546.3,18002.7,15797.3,23341.9,20488.0,27617.7,0.0,21457.2,
452,0.35,15700.5,23840.7,20607.0,12971.1,18105.7,17400.9,16619.8,18291.3,21261.6,19232.0,13737.1,22675.4,22027.4,11972.4,21889.9,42047.8,22748.7,17294.6,17100.1,0.0,34276.5,
453,1.26,20343.1,22665.2,28917.9,18897.2,24572.1,28118.8,24190.7,20461.6,27535.5,15519.4,18620.9,54005.6,23715.6,16651.7,22129.8,71911.5,57872.9,17821.9,11258.0,0.0,20713.6,
454,0.254,11101.7,21782.7,19926.8,13952.3,9639.2,10574.1,10814.1,7379.1,8747.6,11205.8,13468.4,10388.6,10285.2,7692.9,9080.3,19264.8,14860.0,10443.2,12119.6,0.0,35882.5,
455,0.36,9427.6,11496.5,12088.7,27895.7,10385.0,12994.7,15893.2,8256.2,14615.2,37768.3,7514.8,10943.7,18779.2,5742.6,8789.6,9795.9,18600.7,19938.1,38047.3,0.0,23187.0,
456,0.278,13192.8,20677.9,14457.2,12152.3,16020.8,17949.1,16630.1,9803.5,16134.9,25698.9,13925.6,23148.6,18718.1,9045.9,9177.5,38638.3,61520.0,13932.6,16308.2,0.0,23414.7,
457,0.264,12448.4,16387.7,13989.6,11221.3,13719.1,12418.1,12792.6,9949.4,13793.2,19699.4,8659.9,19703.2,11958.5,8735.0,11192.1,17129.0,20211.9,13172.9,14707.6,0.0,21350.3,
458,0.383,31390.0,34152.7,29710.7,19925.2,28846.3,30167.2,25809.5,34902.6,33992.8,19715.3,22591.2,27759.1,24784.9,25559.3,29772.8,22800.9,21103.1,24585.1,23551.5,0.0,28566.2,
459,0.266,8493.5,8176.0,13002.1,11193.8,6696.8,7612.1,9291.1,6548.6,10424.9,14478.1,12070.8,15184.8,12188.1,5829.0,11085.6,18321.0,12658.9,9290.5,14707.0,0.0,21833.8,
460,0.275,10143.9,11773.9,14644.5,13720.3,13874.0,19029.8,18803.9,11771.6,21862.7,11293.6,7014.3,19198.1,15367.3,7264.0,12889.2,15977.6,12838.3,14751.1,11074.5,0.0,17127.9,
461,0.261,9331.7,10197.5,10469.6,10420.6,8174.4,8702.9,10547.7,8234.1,11642.8,22213.6,21353.1,18673.0,13028.6,12100.3,15854.2,28444.3,21413.6,10845.4,20787.8,0.0,17817.6,
462,0.304,10038.8,9669.0,12657.9,9375.8,8065.9,11854.8,12453.9,9800.2,13080.5,14526.0,13490.6,44110.1,18887.0,11967.0,13153.6,44243.0,62122.0,8601.3,7453.8,0.0,24989.6,
463,0.368,12253.5,15318.4,13023.3,16149.0,14406.4,13712.5,14533.3,10443.1,13968.4,21712.0,7162.1,10958.9,17822.9,6602.8,8389.1,11077.3,17869.8,16225.2,20268.6,0.0,28721.5,
464,0.286,19388.5,18630.3,20117.0,24472.5,17609.7,19410.7,23190.3,22776.7,29916.9,53793.5,18263.2,59907.0,52678.4,21367.0,28898.2,39723.5,59097.7,34587.0,42689.9,0.0,42736.9,
465,0.403,12879.2,21540.1,26120.9,18493.6,15672.0,19662.0,20247.6,14573.9,20438.3,28126.1,13483.1,68309.6,41656.1,12632.1,18904.9,42578.7,88259.2,21943.8,21404.3,0.0,33033.6,
466,0.38,19890.6,35796.9,34542.1,18255.5,31232.0,35149.3,30260.1,24984.3,42285.2,22150.4,15746.7,150200.2,44246.6,13990.1,35746.9,130785.0,144159.3,21697.3,13300.1,0.0,36157.9,
467,0.387,16709.7,24600.2,26797.4,30161.3,26265.9,32226.9,32602.7,28257.3,42994.3,43904.9,29871.2,131371.3,61335.0,18921.7,69904.8,129283.5,78674.5,38411.6,31044.0,0.0,38623.3,
468,0.216,13289.6,22224.4,25236.5,21404.5,19555.0,21843.3,20805.0,18190.4,26500.9,19653.7,12516.4,30536.0,26353.0,12969.4,17324.5,18372.9,23771.9,19640.4,22849.1,0.0,37669.5,
469,0.491,15831.7,25707.6,36644.2,35683.1,23976.1,26323.1,27028.7,24700.4,24152.6,56460.0,25522.9,30663.1,40887.1,21168.9,27431.4,26209.8,39017.4,35368.5,49669.0,0.0,20798.2,
470,0.278,19648.6,19737.0,21910.7,20728.4,17230.1,18142.2,19179.3,12284.2,16606.8,17010.2,7106.9,15195.3,11895.2,9980.6,10030.4,12358.8,16893.4,17092.8,18179.6,0.0,37982.8,
471,0.344,25844.6,18957.9,16986.9,10038.7,17445.1,14881.2,12332.8,15576.6,12071.3,11235.2,11296.1,11228.7,10938.1,16551.8,12116.9,7747.0,9936.2,10698.8,10880.5,0.0,48161.0,
472,0.291,5008.7,9143.7,13251.7,15101.0,9406.0,12785.1,14082.7,8551.1,18558.7,10051.9,9069.4,14052.8,16165.4,8282.1,9908.8,11907.5,12970.7,14527.7,13524.6,0.0,19508.8,
473,0.303,9173.6,10186.0,14840.1,11377.8,8313.3,10478.6,13073.9,9539.5,12564.2,18208.8,9099.2,33844.6,21175.5,11324.4,12911.9,31379.0,26521.9,15542.3,15445.0,0.0,26498.1,
474,0.365,13977.1,17748.8,17987.1,14846.3,12848.2,12417.0,11814.8,6863.4,9447.7,18851.5,6640.3,53793.3,19085.9,4713.3,9893.2,25708.3,32266.8,10609.9,16462.7,0.0,19811.9,
475,0.262,10405.0,17904.7,18070.1,15761.8,15647.5,16890.5,16831.0,8661.0,19608.1,19749.3,12216.4,14746.8,17797.8,8150.4,9938.7,12894.6,15039.9,17342.4,19152.7,0.0,22800.6,
476,0.253,5844.1,6348.8,6673.0,6188.8,5686.8,6064.4,5976.4,7733.5,9649.6,12962.6,7556.7,10417.4,8512.5,6966.9,10675.2,10161.0,8470.0,7497.2,11732.1,0.0,22529.5,
477,0.283,11110.3,13438.5,13832.4,14026.8,10671.7,9654.8,11859.7,10262.2,13639.4,17606.3,12129.7,33669.0,17910.1,9263.1,15450.3,34396.7,25983.3,15055.5,15585.7,0.0,24924.9,
478,0.255,11750.6,14341.4,17821.9,13896.2,12283.9,13228.2,14433.6,11017.4,16568.8,20632.4,12869.2,59819.0,24790.6,9479.5,14562.2,39403.7,25450.4,14917.6,23499.7,0.0,26844.7,
479,0.289,27802.6,27698.3,27375.9,22436.0,30796.8,29845.3,27136.5,23346.0,29347.8,16920.2,11103.1,56978.7,24336.3,17912.5,16473.6,40611.7,46360.7,23281.7,18250.1,0.0,43622.1,
480,0.416,14463.0,18400.8,24644.3,31765.4,23827.2,32077.0,32387.6,20769.6,38930.2,28074.7,17114.2,143197.4,46354.8,13556.7,26072.1,93224.6,96507.0,34361.9,31148.4,0.0,26752.3,
481,0.313,11442.3,17004.5,22679.4,23226.7,15174.0,20402.5,24415.9,14243.8,20631.1,30041.5,33068.5,68525.5,27075.1,15234.3,36702.4,119844.8,55239.5,26486.7,22527.6,0.0,31988.8,
482,0.258,10982.6,18967.7,20769.5,17450.9,11976.1,15248.5,15667.5,8913.7,12983.8,22254.9,25019.4,97996.2,20502.3,7657.4,39637.9,98319.4,34240.2,14484.6,22765.9,0.0,18330.7,
483,0.271,20849.6,25759.2,29601.7,28559.6,33928.9,40294.2,40404.3,23803.9,51548.1,24379.2,9937.0,220020.4,63765.8,11551.1,39876.1,87179.8,146876.3,35307.2,20189.4,0.0,30576.5,
484,0.254,17543.1,15338.8,18623.8,20473.4,17521.7,20449.4,21343.9,25291.9,36258.2,43182.8,19073.6,139967.1,69145.5,15331.8,37670.1,40679.5,72207.8,35494.0,29183.0,0.0,24045.9,
485,0.28,12318.4,22549.0,26117.9,17278.2,15308.7,18382.4,21702.7,15459.8,25667.5,27206.2,19085.2,61166.9,37881.5,13647.1,21639.4,37890.6,50088.8,22621.1,21864.3,0.0,33969.4,
486,0.274,11252.1,17434.9,17204.6,15401.0,13492.6,15904.1,14974.6,9719.3,14971.7,17183.5,11270.6,79256.5,29728.4,9153.1,9237.6,44316.4,56014.3,17061.3,17033.4,0.0,17554.0,
487,0.244,8297.3,8505.1,8377.6,8165.1,7074.9,6095.9,5897.5,9378.0,8040.9,16242.4,14145.0,30658.7,15285.8,11524.9,15899.2,43791.7,35702.8,7867.4,13035.9,0.0,25379.7,
488,0.306,15772.0,20491.3,19767.8,19222.5,20171.6,23733.8,22181.4,20166.4,28068.6,22011.2,19887.8,24167.7,26342.7,15673.4,24034.0,20811.4,25946.7,23941.1,19191.6,0.0,20056.2,
489,0.264,9745.2,10591.9,14309.2,15994.0,11796.6,14464.6,14797.0,11519.1,16412.0,10746.7,9274.1,19158.7,13044.5,7610.0,15230.9,13623.7,14851.2,12802.5,10802.6,0.0,27515.8,
490,0.279,21395.0,22141.6,21773.0,21683.0,21581.9,25511.9,24032.7,15037.7,23023.2,37480.4,14234.6,25379.2,33991.8,12970.8,13902.0,17567.5,33667.6,25779.2,33251.5,0.0,20164.9,
491,0.396,14338.5,19668.8,20304.5,19887.5,15473.6,17142.2,19248.2,15492.1,16593.3,24155.9,11069.5,24921.2,22305.2,11815.3,15485.1,14208.7,19479.0,21127.9,20990.3,0.0,31519.9,
492,0.296,23509.5,28640.2,28703.3,32496.9,29096.3,27070.3,28218.7,23216.1,27322.6,32703.2,24091.2,29680.3,29926.4,21662.2,25366.9,25697.0,34802.8,31315.1,31690.7,0.0,29142.3,
493,0.416,11497.6,12240.1,18930.1,20963.4,15355.7,17166.3,18883.3,14559.6,21149.1,15308.8,12475.1,13659.9,13659.6,11759.2,10247.6,7993.8,11771.8,16536.8,17013.9,0.0,18004.9,
494,0.282,33339.9,29776.9,24104.1,17322.1,26819.2,25187.8,23341.8,28234.1,24523.7,22475.6,29460.0,23155.2,24665.6,29426.2,26582.4,28755.6,22273.2,21265.4,23183.0,0.0,23976.3,
495,0.225,4043.9,9585.2,12353.9,10774.5,7472.2,8612.2,10238.6,5343.5,8718.7,18283.0,5957.9,11892.2,12055.0,4350.3,7005.5,9399.4,8922.1,11521.3,23444.0,0.0,18385.8,
496,0.289,5654.1,5641.3,12040.9,11783.7,3758.3,4279.3,7699.5,4711.9,6520.6,14684.1,7553.4,10360.2,13286.2,7702.8,5369.7,8963.3,9116.4,8667.3,21771.6,0.0,20743.2,
497,0.266,9455.0,7288.7,9597.2,15572.6,8798.5,8228.7,8781.6,10705.8,9804.7,23205.4,9564.5,13014.8,14733.3,10316.7,12849.2,11119.4,14447.7,10536.5,22372.6,0.0,22465.9,
498,0.662,14156.2,13445.6,12293.0,14145.5,10687.7,12488.0,12294.5,8999.5,10390.0,14859.9,13012.5,12502.9,14139.1,11691.7,11741.0,11523.3,10277.5,13564.9,13706.4,0.0,37439.4,
499,0.237,16826.1,14255.4,12663.0,14856.4,14104.2,14025.4,14380.9,15309.9,17720.0,16245.9,15045.4,21223.8,15019.2,16072.6,14753.0,15644.1,10057.7,14235.4,16205.1,0.0,52604.1,
500,0.284,16395.8,18673.5,17928.1,16080.0,18363.1,16976.0,16472.8,20496.9,21910.6,22761.2,18810.2,24186.3,15370.6,18461.3,20411.5,21305.7,14750.7,18263.9,22131.5,0.0,34474.1,
501,0.359,17429.2,21367.2,18854.1,13676.8,17262.3,16478.6,14210.7,13979.8,16954.9,19333.9,11339.1,16876.6,16576.5,12048.2,13324.0,12121.5,18603.6,14451.1,17589.9,0.0,17273.4,
502,0.315,11748.1,17258.2,16739.8,17929.4,12978.4,14986.3,15330.6,14193.3,16656.9,31806.7,12386.5,19184.9,20346.8,9731.0,13171.9,14203.2,19047.1,17465.9,27857.2,0.0,42860.7,
503,0.247,10579.9,8780.0,11340.6,6673.4,12506.2,12110.3,10310.8,10956.6,11800.2,13176.9,8959.3,6906.1,8373.4,9767.9,6774.3,7960.1,10756.7,7958.2,7945.1,0.0,20841.4,
504,0.275,7913.9,11818.0,13339.6,13562.3,11806.8,13309.0,11917.9,8956.2,9364.6,15523.4,6668.9,7351.4,10605.7,5572.5,8361.6,8183.8,11996.3,10914.4,16765.7,0.0,17067.7,
505,0.257,16381.5,20021.2,20609.2,21864.1,18286.8,17305.3,16896.9,17366.4,16830.1,14988.0,15170.2,22868.9,18887.2,13910.2,16468.2,18420.6,17826.7,19022.7,18672.6,0.0,40112.8,
506,0.386,18765.5,17603.6,21740.1,17627.7,14860.8,16949.2,16813.2,14740.8,16147.3,19086.1,18964.5,23391.5,25483.6,15350.4,14852.4,17432.1,23458.5,17801.8,20679.1,0.0,35818.3,
507,0.433,8228.0,10365.9,11004.9,7766.5,8698.5,9858.6,8208.7,6018.1,10158.4,12763.4,10570.5,36170.3,14979.7,4908.9,12234.0,34501.6,37823.4,9289.3,8336.9,0.0,12553.9,
508,0.244,8986.3,10419.3,14820.2,13632.0,10277.3,14001.7,16059.6,11015.0,17631.8,25923.0,9942.0,29553.5,26618.0,8326.1,10717.9,21583.7,31929.0,17931.8,20221.8,0.0,26483.1,
509,0.492,15642.4,17716.7,24780.5,23737.4,18991.0,21063.6,22743.0,19993.6,27903.6,25595.0,16249.5,48415.1,30484.9,18317.5,24567.4,24544.1,35187.2,27585.0,23929.3,0.0,57809.8,
510,0.319,10203.7,12112.6,10805.4,10116.7,11079.7,11799.2,10376.6,13920.6,12924.8,24729.4,14259.9,14385.0,21912.5,12701.8,13348.4,14020.8,19527.3,13543.7,20422.7,0.0,37286.0,
511,0.371,9649.7,13148.7,13123.6,14557.0,10489.5,12345.6,12534.1,10113.1,11879.7,13821.2,12354.4,13860.9,14028.4,11754.7,11814.4,15281.2,13149.2,12437.4,17638.8,0.0,23546.9,
512,0.325,20560.0,21501.0,22733.8,25565.7,20085.1,18955.1,19277.1,18191.2,15834.4,29043.2,20152.9,19403.8,23488.1,21063.0,19946.2,17674.0,29710.2,20806.3,28346.7,0.0,32481.6,
513,0.3,24549.8,28728.0,32975.3,29319.0,25396.3,28490.7,28684.4,22832.4,25136.0,23616.0,23189.5,22278.8,25377.4,23682.1,21483.8,23483.5,18626.7,26277.5,29793.9,0.0,23550.0,
514,0.312,16725.3,24772.7,24074.1,19236.5,18802.6,21841.0,21497.4,16477.0,20498.4,25820.8,10162.1,27063.5,24984.6,11387.7,14861.8,29155.1,47730.6,22455.7,20465.4,0.0,30834.3,purple and amber washes
515,0.886,7505.1,11581.5,12574.4,14581.6,8984.6,10470.5,11001.8,11133.1,12052.1,6896.8,7596.1,12589.4,11616.9,6404.8,9761.2,11273.4,9010.5,12808.3,8162.0,0.0,20508.2,
516,0.364,8428.5,14108.6,17718.7,13790.4,13469.2,14903.0,15407.7,13764.6,17793.1,17999.4,8322.7,15369.9,18239.5,4979.4,20348.7,20264.9,16740.8,22612.8,17775.6,0.0,31339.4,
517,0.68,19968.9,24679.8,28606.3,67603.6,20640.6,22103.9,23322.1,17323.0,20914.3,20129.5,13690.2,17136.7,15642.7,17373.2,19319.0,15402.7,16464.3,26698.4,26515.2,0.0,16471.7,
518,0.567,4284.8,11297.7,14229.0,15253.6,4416.3,3943.1,4710.2,5023.6,4631.3,7320.5,3847.8,7340.7,6785.0,4636.6,5706.8,6871.8,6803.3,7751.7,8266.1,0.0,20672.6,
519,0.628,17141.6,26991.8,27584.7,21901.1,19622.4,20622.2,21897.5,15043.5,20322.4,19217.2,9770.3,13344.1,18600.7,10767.3,10583.3,7494.8,13167.5,17836.9,19970.2,0.0,34291.8,
520,0.65,28191.5,29901.6,31053.6,23861.4,26490.1,26862.6,25235.0,26961.3,28138.7,24934.8,22592.2,27726.7,30144.0,24305.7,24736.7,23499.1,25673.5,30355.5,24291.7,0.0,39708.4,
521,0.453,6710.0,8185.7,9590.9,10149.5,9235.6,11561.5,10622.8,11888.6,13418.8,13059.1,7452.0,13607.3,12876.9,8336.6,12350.8,10839.2,12673.2,11514.5,9492.9,0.0,22040.8,
522,0.954,12894.0,17755.1,20955.5,18662.6,15598.4,17250.4,16763.6,24234.8,14706.4,18288.8,10273.0,11155.6,11992.1,10929.6,14593.8,12181.6,15581.2,16955.8,17367.9,0.0,42793.8,
523,0.54,13494.1,21614.0,21878.6,11208.6,15697.6,14705.9,13402.4,14120.3,13116.4,9731.6,18107.0,24623.2,13251.8,12366.7,19152.3,38838.8,22800.7,12681.1,11503.1,0.0,27493.5,
524,0.388,7015.6,9756.0,8841.7,8734.6,7025.4,7775.3,7715.7,7417.8,7646.9,10018.7,6726.8,7334.3,7222.4,5454.6,6382.1,6934.1,7029.2,7530.9,9909.5,0.0,21793.0,
525,0.363,12220.3,15050.9,19816.1,32106.1,16667.4,21626.7,23442.7,13789.8,20924.0,23744.3,7987.9,18418.7,16618.8,7943.5,12832.7,12537.0,17138.8,22374.7,31213.5,0.0,27371.0,
526,0.263,6516.7,8967.8,14137.1,13101.5,9721.2,12157.3,14475.5,9275.2,14562.9,20504.8,16082.9,16409.9,18005.4,12882.0,10751.6,23020.8,29708.7,14003.2,19735.7,0.0,30943.5,
527,0.5,22012.4,32005.2,38409.4,36226.1,29453.9,32196.4,33586.1,30458.2,33321.7,38318.4,31606.5,35350.7,33164.7,27375.8,27742.9,24377.9,60452.0,31615.8,35521.0,0.0,27411.8,
528,0.275,12028.2,19668.0,20604.2,19087.3,15793.6,18009.2,18752.2,11916.3,17582.2,12880.9,12173.9,19443.2,17148.6,9619.1,10991.0,14850.6,16449.4,18251.6,15209.3,0.0,40538.5,
529,0.34,15363.6,22618.0,24960.6,13472.0,18357.9,20610.6,18880.7,14642.3,17165.8,11629.7,20830.6,19499.6,18380.6,18476.5,14607.8,16094.6,16843.5,13918.4,9087.8,0.0,18058.3,
530,0.344,4638.0,8502.5,9713.5,4004.0,4697.2,5185.8,4897.4,3186.7,6309.9,5734.3,5662.1,7956.5,5154.4,4259.6,4482.0,9005.2,5430.4,4513.2,3682.5,0.0,20781.3,
531,0.347,20394.2,26139.7,23699.9,22669.3,24105.1,27176.4,24820.3,22132.2,24415.5,28555.0,15527.5,26667.2,24826.1,15703.6,20483.7,24507.5,56752.0,24423.0,24383.8,0.0,44243.9,
532,0.309,16055.1,16952.3,12953.4,6720.9,16552.5,15440.6,11527.6,16843.6,21010.3,9117.0,11151.0,21232.3,10249.5,11710.6,16681.6,16375.0,8179.0,9783.0,7344.5,0.0,24770.8,
533,0.259,10167.6,10300.3,10702.0,15042.9,10490.1,11217.5,10874.3,12021.1,12700.5,30676.3,20274.5,19056.6,19368.3,15621.4,19481.4,34995.5,32608.2,12578.1,24538.3,0.0,36421.3,
534,0.305,16148.9,22920.4,17715.3,17898.1,14941.2,16380.9,15203.3,14913.6,19556.9,27604.3,21553.7,36379.2,24878.8,14569.1,21315.9,29664.5,27300.3,20740.5,24886.8,0.0,42205.2,
535,0.301,15631.4,17998.0,17012.2,15110.8,18012.1,20531.4,21344.7,19360.9,23730.8,19258.2,17233.9,26946.0,20759.7,16073.1,19681.0,29564.1,32753.0,16474.5,16842.5,0.0,24692.1,
536,0.332,14956.2,14911.6,15994.1,22293.6,14581.1,15555.4,18058.0,13467.1,18013.7,33856.3,15674.5,65747.7,44979.3,14537.0,14721.1,41262.8,67731.4,27055.9,30655.3,0.0,22090.4,
537,0.469,14800.3,16451.9,18880.9,20075.8,17382.8,16411.8,17143.8,21650.9,24956.3,40406.1,30915.0,106431.0,59238.0,23854.3,44221.1,80496.3,102715.2,22770.3,27837.9,0.0,27403.0,
538,0.295,19647.1,25990.8,27307.4,22084.4,22860.0,25673.1,25075.8,18215.2,29145.4,20253.5,14611.6,45069.3,31011.5,14599.3,22726.5,41407.1,48495.9,25181.2,17237.7,0.0,22461.1,
539,0.318,6371.8,11428.2,14251.8,24417.7,10486.4,13808.8,18806.9,9240.5,16103.4,39087.2,8799.1,18700.2,23843.6,7061.5,14710.2,10958.9,28219.0,22419.8,33232.8,0.0,25559.2,
540,0.278,9992.5,10062.5,10739.1,9374.4,8435.1,9318.6,9359.2,10817.1,10424.7,12712.2,11406.6,9438.9,12903.7,10567.2,11816.3,11216.1,13117.1,10134.2,12181.2,0.0,27698.4,
541,0.287,13816.5,11874.1,15915.0,21450.4,11684.4,12852.8,15928.4,12977.2,17054.5,17612.7,11300.2,22141.5,24512.3,11403.8,12652.5,11756.3,19996.3,17860.9,24836.7,0.0,32568.8,
542,0.283,10150.3,15687.6,18311.7,18051.3,14723.1,18776.0,17798.5,9211.1,15613.7,18530.7,9013.5,17391.7,19891.6,6865.6,9135.7,11321.2,16635.8,15918.3,19027.9,0.0,29137.4,
543,0.331,17839.1,31159.7,30929.6,19217.7,26163.7,28858.4,27474.9,20902.4,29544.7,31622.4,17896.1,26785.3,36347.8,17901.6,18766.5,15238.4,25139.0,28327.9,23661.1,0.0,44908.6,
544,0.352,22249.5,31104.6,38250.6,42000.0,25457.0,30444.7,34504.8,21083.3,30754.0,39368.0,28536.7,38769.1,32555.0,20411.8,26944.7,40452.0,49634.5,34677.8,42273.9,0.0,43179.1,
545,0.336,17806.5,21399.8,27509.6,26786.4,22796.2,25632.8,28982.3,24089.4,31773.7,36723.5,31035.7,42677.9,42444.3,24611.6,32857.4,45152.3,46779.6,33788.3,37295.9,0.0,30233.7,
546,0.27,19628.4,27898.3,27762.0,31571.7,21103.0,25155.1,26665.3,11758.7,19690.9,46937.7,13608.0,65959.2,36237.6,11859.4,16351.9,67217.7,38757.6,30010.1,43062.6,0.0,48162.0,
547,0.235,8622.9,13288.1,17110.3,19475.8,14404.1,18622.6,20815.7,10775.3,23781.7,30039.4,14699.8,47153.5,18512.1,6237.6,27164.6,105334.8,20317.6,19704.3,18771.6,0.0,15824.4,
548,0.275,8741.8,9931.9,8139.0,7427.1,12438.5,13641.8,12146.7,12637.5,21346.6,24310.9,7043.5,38558.0,30654.9,9338.3,12561.6,19852.6,59827.1,14580.5,11534.0,0.0,24036.5,
549,0.37,16679.0,20372.9,26718.8,26820.1,14561.0,14397.8,17860.4,13775.5,15752.3,50265.8,19986.9,20242.4,23505.8,14194.8,17051.6,24104.9,30008.1,21045.4,46119.9,0.0,40416.4,
550,0.522,14942.0,11551.7,10362.8,11609.6,13358.4,12900.4,10854.6,13351.7,16926.7,14032.2,15358.7,20271.1,15825.9,15992.0,14561.7,13511.0,14880.6,10914.6,15584.9,0.0,27486.9,
551,0.288,12586.0,14323.3,15793.1,17973.8,18354.8,23480.5,19790.9,18536.3,22742.1,18323.2,16720.2,30784.4,22512.5,13435.1,21559.2,17934.1,14990.7,17441.0,22085.4,0.0,22636.7,
552,0.267,4902.2,9695.3,15604.4,13516.7,9475.8,12261.3,13164.8,7829.1,11989.0,16915.4,8289.8,6279.5,11184.0,6066.8,6581.4,6828.5,8278.3,11886.3,18777.6,0.0,14312.2,
553,0.333,10437.1,17830.2,23770.1,24267.0,19750.3,23299.5,24829.5,17403.7,26784.1,24442.6,12341.8,40573.1,30174.5,8477.7,17114.5,40299.4,51964.9,23218.6,22627.6,0.0,26296.6,
554,0.243,12623.0,14733.5,21431.2,26960.8,11642.3,13576.7,18514.8,12157.7,14032.1,29174.9,26330.0,16151.1,19093.6,18591.3,16340.0,25778.1,15832.8,20370.7,28848.5,0.0,52225.6,
555,0.291,10668.5,15211.3,17619.7,14008.0,15944.2,20894.8,21184.4,11964.7,25307.9,29558.6,6170.9,50570.6,38388.1,6156.7,11978.0,26148.0,64461.5,18536.5,18188.3,0.0,20638.3,
556,0.263,10612.1,13042.4,15194.5,17948.6,16987.5,18881.2,18241.3,14218.2,26896.5,25839.6,9302.4,68329.2,23717.8,8094.9,19569.1,64294.9,78837.8,19092.6,24873.3,0.0,33787.4,
557,0.249,12315.4,23410.8,28669.7,23893.0,16697.8,21464.8,24875.0,11175.9,23601.7,14205.9,19882.5,56123.1,21665.5,10073.4,23068.7,111655.6,29339.1,22356.6,16307.8,0.0,33601.8,
558,0.203,12826.7,12822.4,13757.1,10316.6,13498.1,14083.5,13883.7,15546.2,24095.5,18938.6,15947.9,87249.0,31340.5,10739.7,27224.5,65046.7,45488.5,16564.7,14660.2,0.0,30283.4,
559,0.309,9922.0,11541.5,17574.8,18023.5,12752.9,15985.0,19763.6,15143.9,18354.1,21003.0,20263.7,25671.9,26446.0,13278.8,18807.0,29203.9,23934.1,21273.3,19128.6,0.0,35847.6,
560,0.216,13613.6,10705.4,14533.5,14029.3,14687.5,15718.2,15957.0,17369.0,17759.1,23666.2,19023.4,19717.7,22211.9,18865.7,20254.8,20344.0,18894.8,16881.1,20208.6,0.0,44252.1,
561,0.259,6881.8,19626.2,24858.2,26390.3,20208.4,27686.5,29959.2,11170.4,34116.7,28179.3,11498.5,38140.9,30978.1,8872.2,14718.0,16833.9,26902.7,30827.4,28177.7,0.0,16339.6,
562,0.269,14474.1,13145.6,12744.9,8996.4,12415.2,10581.6,9963.0,12832.1,7952.5,10276.1,15977.6,12971.3,9101.2,14603.0,13870.6,20375.8,18096.4,9851.4,11249.8,0.0,29460.6,
563,0.323,6703.5,8985.2,10020.0,6633.7,7465.4,9509.2,9192.8,8283.6,8755.8,7857.4,7587.6,9489.7,8012.3,7234.1,9048.6,15333.1,9528.5,6475.7,6174.9,0.0,16853.8,
564,0.243,18223.7,19002.6,20915.3,24051.4,17714.9,17859.7,19569.0,19664.4,21485.6,27390.8,14061.7,19550.0,23639.5,17926.8,18335.4,17139.1,23657.3,23109.2,27823.6,0.0,39235.0,
565,0.215,9124.8,15322.5,20551.3,18890.8,17550.1,22593.2,21504.7,12901.1,18045.0,23058.3,14409.3,15841.9,15543.0,8504.9,10218.8,10063.1,11882.7,18834.1,25455.9,0.0,18140.1,
566,0.223,6877.6,8283.9,11556.1,12473.5,10151.6,11872.9,11589.1,9363.7,13536.0,13916.6,8812.5,17033.3,12679.0,4899.5,11911.3,16634.7,10282.8,12045.0,11595.5,0.0,20972.8,
567,0.215,8347.5,10924.4,12512.7,12032.2,9521.0,12859.7,11959.2,7548.1,12884.9,22661.4,6463.1,14494.6,20328.6,6514.7,9914.4,7781.5,16696.6,13698.1,21638.9,0.0,16710.9,
568,0.273,9668.6,12277.2,17521.8,14954.0,12459.6,14595.8,15711.1,12841.6,17574.9,23281.8,16056.5,39190.7,28608.7,10712.2,24291.0,66223.5,52605.1,17570.9,16132.6,0.0,20367.2,
569,0.246,9558.9,21216.3,26576.2,26818.8,20125.5,23283.3,25799.6,13036.0,22281.0,32814.4,4700.1,17343.8,21887.9,4607.1,6969.1,20943.0,25849.5,25939.7,28288.6,0.0,19130.1,
570,0.299,10339.9,14486.8,16376.9,17144.2,13029.7,14039.7,13937.2,11432.8,16315.3,20468.1,9131.2,13140.1,13308.9,8725.9,15673.5,10682.6,9789.2,14991.0,20593.3,0.0,27593.1,
571,0.19,13350.4,13818.3,13010.9,17787.5,12586.3,13167.6,13741.8,15330.2,14560.0,17617.8,13550.0,21491.4,15537.6,15259.2,19954.5,16200.1,17795.7,15110.2,18675.0,0.0,30154.0,
572,0.325,9261.1,12441.7,16898.8,15857.0,12794.7,15857.7,15620.5,10975.0,18214.0,11976.5,7768.4,16902.0,14782.5,8864.1,9869.8,9898.6,11627.0,15934.9,11817.5,0.0,26700.4,
573,0.382,8743.5,10673.0,14259.4,17420.3,8727.3,11490.5,12620.3,7402.8,11612.9,8007.3,7149.5,8450.9,7609.5,7253.9,7714.3,8916.7,7206.0,9769.1,11716.6,0.0,27156.1,
574,0.549,7696.8,10759.0,14436.1,14354.5,8436.6,11237.1,12639.8,7233.1,10375.9,9401.0,7921.7,7349.0,8096.1,7520.6,8213.4,15388.9,6925.2,11271.5,13047.7,0.0,18889.8,
575,0.664,12337.4,17010.2,17922.7,14809.0,11447.8,13154.3,12877.0,12032.1,14250.3,17897.1,12934.9,16417.5,14749.7,13776.9,16166.8,15632.4,18131.7,14282.8,19916.1,0.0,19118.1,
576,0.373,8265.8,11290.6,11423.5,6978.0,7781.4,9851.3,8750.8,8614.9,10825.5,4826.7,6938.3,9408.9,6926.0,6964.0,7549.5,9674.9,6590.4,9636.5,6840.0,0.0,22056.7,
577,0.364,9065.3,9783.7,12090.0,10256.2,8182.0,8974.2,8692.3,9990.1,7046.2,11498.4,10925.4,9014.5,8028.9,14737.7,6774.6,6139.6,8289.3,9219.8,14229.7,0.0,34106.9,amber and red iridescence color washes
578,0.361,13013.0,14666.0,20014.0,21355.4,14220.1,12768.5,17336.3,13107.7,18760.3,13342.4,11080.9,11544.4,15505.1,11284.4,12041.5,10291.6,13637.5,19884.2,15396.8,0.0,33153.6,
579,0.627,6600.9,11366.7,15978.5,16083.6,8304.3,11427.4,12015.9,7034.1,12855.2,27500.6,7289.6,12726.0,19501.4,6077.2,7868.7,9467.1,19720.7,15962.8,24055.3,0.0,22061.5,
580,0.558,6940.7,9310.0,10357.4,8551.7,10100.3,8724.4,9020.0,9150.1,12076.7,8030.7,4992.8,15098.5,11435.8,5167.7,10473.1,8595.8,10951.1,10563.4,8914.1,0.0,16345.2,
581,0.699,22805.5,18948.0,19090.5,25552.5,19710.1,18517.5,17940.5,20531.2,18407.8,20101.7,21985.6,17759.8,19900.9,21892.2,17517.6,21026.7,17239.6,21321.5,22824.1,0.0,33531.3,
582,0.881,11869.2,20424.0,28072.5,22618.6,17027.7,18706.6,21327.4,14189.3,18414.7,28606.4,11605.0,15400.9,20228.3,9303.6,10986.6,15032.8,17972.8,21014.2,25552.7,0.0,20804.2,
583,1.187,13310.8,10119.7,10475.9,77703.8,10229.9,9726.4,12572.0,6522.1,9958.8,10373.4,11791.0,10686.2,11481.4,9612.6,11180.5,12620.6,12223.0,16218.1,14627.2,0.0,17815.2,
584,0.861,11628.7,14680.8,16226.2,22758.8,13905.3,13922.9,17383.1,16632.8,21286.4,22246.1,13518.3,17658.1,19274.6,10304.7,16965.2,18282.4,20869.7,26917.7,16428.2,0.0,20775.9,
585,0.815,16157.7,22939.2,28947.5,29928.6,20699.9,24105.2,26115.1,24502.4,26465.2,21069.4,23962.1,26697.4,27260.5,18385.1,25760.8,39817.4,33530.4,25355.3,26521.1,0.0,39168.0,
586,0.664,6980.2,13622.5,19171.4,13671.0,11868.7,15065.6,16183.6,8908.8,16173.7,9745.3,6476.7,13069.0,11553.0,4364.8,10058.6,12149.8,14456.9,12942.7,11993.9,0.0,21459.4,
587,0.71,12075.5,22617.3,23222.8,14070.3,14895.9,15686.7,14990.3,13398.2,13486.5,13283.2,15337.4,12667.2,14940.0,18769.9,14681.9,12385.7,12082.1,13109.8,14703.0,0.0,47109.2,
588,0.647,15693.1,11053.5,9613.2,10084.6,12716.4,9832.6,8119.1,17889.8,13306.5,18337.6,17930.6,16691.4,15892.8,19765.4,20868.2,15409.2,14540.4,10287.5,14204.8,0.0,35882.5,
589,0.663,12982.5,19453.1,17985.7,16015.7,14676.7,14297.9,14247.0,14508.5,15467.8,19094.7,13436.0,14645.0,12806.8,15699.8,17414.6,14086.1,11073.5,16020.2,22665.7,0.0,40048.9,
590,0.629,13552.1,21056.4,19746.5,15602.4,17151.5,16690.9,15402.7,16519.4,16647.5,14197.1,11695.8,17190.5,14843.1,14368.1,16159.5,9853.7,14666.8,16295.8,17992.7,0.0,31179.3,
591,0.546,11078.6,15953.0,17612.8,17055.0,11577.0,11104.1,12544.2,9975.3,10902.4,13252.4,10216.4,13228.7,14072.4,8461.2,9104.9,12612.5,11875.5,13224.5,20566.2,0.0,37846.6,
592,26.665,11892.4,34910.5,34642.3,20225.4,17560.7,19708.0,20987.2,14757.4,18754.6,13429.9,7423.4,21259.0,15238.7,8684.1,16766.2,13983.5,13453.2,18124.5,18195.5,0.0,21389.1,
593,0.729,20114.7,32649.4,31068.1,20120.9,30263.3,29430.4,26639.0,26536.7,38747.5,18326.6,16037.8,30403.6,25138.9,17619.7,27448.9,17059.7,18851.7,25305.2,17656.1,0.0,40404.3,
594,0.271,3634.3,4585.0,5457.6,4119.5,4288.3,6077.1,4438.6,5033.3,6689.6,4515.2,7523.4,7553.6,4027.3,5778.4,7780.6,8586.8,3744.9,4278.6,4572.2,0.0,10681.3,
595,0.329,10231.8,17066.4,19255.1,19127.2,12552.6,18339.9,18262.7,11738.7,17312.6,23871.8,10261.7,12888.1,15795.2,9186.6,14259.2,14836.6,15910.0,18089.4,23182.7,0.0,26817.7,
596,0.246,15788.6,16115.3,16039.0,18975.8,16877.1,17128.8,17390.6,14987.3,16762.8,25442.3,14928.8,18505.3,20778.9,15001.2,17869.6,22608.8,17693.8,19872.4,26509.4,0.0,35579.9,
597,0.385,7328.5,12751.5,14662.1,9195.3,13064.1,14193.8,13801.8,11513.5,17406.1,17013.9,14186.6,16346.8,15388.3,9506.0,15872.3,11508.8,11285.5,13509.8,15181.7,0.0,17659.4,
598,0.261,8942.9,11148.0,14827.9,19083.7,12075.5,15175.8,17782.0,12681.1,19378.1,28119.8,12372.9,43051.4,27704.1,10016.7,16911.1,23055.9,30134.8,21989.8,27762.9,0.0,22339.5,
599,0.269,10672.9,13182.5,17160.4,21236.3,12930.4,15089.3,16047.9,11205.6,15303.9,31248.3,12612.2,38862.4,27986.6,7675.6,16058.3,55922.3,50851.8,20232.2,25307.3,0.0,26450.3,
600,0.288,12110.1,7078.2,9495.4,20412.8,10052.9,11624.6,12846.7,15557.2,11754.4,25003.7,15811.1,11707.9,9767.6,14704.6,20499.5,18020.8,11394.1,12248.9,28168.8,0.0,34611.4,
601,0.25,5572.3,7015.5,9285.6,11683.8,8403.7,8139.5,10206.7,6197.3,11838.2,19215.3,3064.9,11860.4,12991.0,3742.4,4841.5,5688.3,10166.5,11309.7,18063.1,0.0,14399.1,
602,0.284,15874.0,18430.1,19584.4,16998.1,18657.4,21513.7,21149.6,15873.1,21697.1,19609.7,8165.9,21766.9,25882.5,10793.5,14121.9,15731.1,25093.0,18809.8,18038.0,0.0,19709.8,
603,0.232,12937.2,19143.2,17503.3,17235.6,17059.6,20041.6,20059.0,17132.9,26474.7,20506.9,18575.8,139661.8,45094.5,12515.9,36636.3,106239.6,82937.4,22313.7,15027.3,0.0,27356.2,
604,0.327,24925.5,32187.9,30351.8,27000.5,29055.1,39319.4,34176.2,18827.2,30668.8,21531.7,17791.7,94724.2,37855.1,16289.7,23420.3,62533.8,92567.4,24674.4,20218.7,0.0,29964.5,
605,0.249,8296.4,11604.8,14932.8,11249.9,9105.4,10192.0,11222.8,10683.4,10715.5,17509.5,19414.0,78653.7,23910.9,12244.4,35358.2,84356.3,30763.5,12462.0,15517.1,0.0,28317.3,
606,0.232,10497.7,11823.0,9576.4,9638.2,10029.9,9744.0,9293.0,9860.4,9818.6,23478.7,10054.4,38914.9,24294.5,9831.9,14022.7,15112.3,27763.9,12060.6,14861.5,0.0,26677.0,
607,0.295,12269.1,13918.0,16629.7,12968.1,13973.7,13716.8,14135.2,12329.2,16228.8,11598.3,15565.3,13963.9,12723.3,13428.8,13342.2,16230.2,12330.5,12747.2,14874.3,0.0,29680.5,
608,0.539,12587.2,17922.7,22272.2,20510.7,13741.5,15493.5,16191.2,15450.5,14847.8,23444.5,10641.2,17106.0,19694.3,11525.9,14741.5,12267.9,17033.4,17729.7,23336.7,0.0,15114.2,
609,0.272,17156.4,14193.6,15716.8,11910.9,20026.9,20611.8,18430.1,19588.3,22648.0,31152.5,35756.0,139395.0,32282.7,18746.3,48074.7,153669.2,102856.5,13753.4,14905.0,0.0,19129.1,
610,0.287,9025.1,14385.9,18638.3,16142.2,11966.8,17838.6,18987.4,7455.0,16070.6,36276.9,20059.8,174906.2,61457.8,7933.6,29132.3,124087.7,181083.1,14578.5,19380.6,0.0,16421.1,
611,0.207,16383.7,22436.3,25540.7,25705.1,21328.4,27528.5,27433.4,14038.7,26896.6,24787.4,13596.0,128207.2,40297.2,8900.9,30851.3,80307.8,59050.9,22228.3,22633.5,0.0,48006.4,
612,0.216,12927.4,11633.4,12143.2,16771.1,14269.0,16066.2,17849.9,12913.2,21089.5,25569.4,11390.0,40750.3,13213.8,9895.1,12584.3,40091.3,43709.9,16788.1,20786.4,0.0,41800.3,
613,0.356,23878.2,26326.9,27884.8,23889.1,29340.9,32991.3,31066.5,29958.1,40170.0,33463.3,24215.6,120812.6,48708.2,24460.6,33734.6,43676.8,45083.5,31859.8,26577.1,0.0,24934.4,
614,0.214,12208.9,13181.9,13364.8,12862.3,13230.5,14097.7,14914.7,9770.5,17556.9,33800.0,11246.2,89142.1,25205.2,6690.5,22046.5,69951.8,26323.1,17527.2,26706.7,0.0,11820.4,
615,0.269,6920.1,7866.4,12567.7,9338.0,8118.9,10864.2,11080.7,9425.8,14169.9,29400.7,11088.4,55252.4,28944.4,7330.6,24777.8,47200.9,58393.5,14630.2,18540.2,0.0,13612.0,
616,0.221,4560.9,3293.3,5533.7,5172.9,4743.6,4668.5,4997.7,10121.0,13870.8,10137.5,12226.2,62930.0,18348.3,6361.7,18326.6,33501.7,30933.8,7040.2,5963.1,0.0,16991.8,
617,0.26,11158.9,19418.2,23102.7,23212.0,20308.6,25432.7,26057.4,15910.7,35020.9,13787.9,7123.9,131446.2,31411.1,8257.6,28258.7,68803.8,58035.7,25104.8,16325.7,0.0,28766.5,
618,0.262,13007.6,13289.9,11481.0,9407.4,12750.3,13700.5,10802.8,14431.4,13944.8,16583.7,13460.7,34159.7,19534.2,12810.0,14283.6,22129.0,35598.5,7864.1,10454.3,0.0,27416.4,
619,0.268,13050.3,20876.2,23115.6,20525.2,20148.2,26675.3,24553.6,15824.5,29254.4,53073.1,17782.8,161210.1,59211.4,13728.4,30914.9,104329.8,200998.3,25382.9,31954.1,0.0,21389.1,
620,0.232,16076.1,31339.0,32065.0,28991.0,25931.8,34382.6,36367.1,15206.9,38065.5,38410.9,15378.9,170194.8,46903.3,8544.0,34328.1,100683.3,81386.4,35477.2,29426.4,0.0,34676.7,
621,0.591,34795.4,35401.9,36308.5,29484.5,38216.4,42221.6,38879.0,32935.4,53813.3,37942.8,18746.5,142427.7,43850.0,22890.3,37366.1,79990.5,82959.6,34689.2,30325.3,0.0,35250.5,
622,0.278,24975.0,26617.7,31983.4,36169.3,27399.3,32451.2,31920.3,27763.1,29764.5,27530.7,15661.4,82916.5,32996.4,21641.5,26389.3,29871.2,35756.6,29815.9,30419.7,0.0,44751.4,
623,0.343,21725.3,23984.3,23416.9,23435.1,25196.5,26667.3,24603.3,23448.0,36912.0,24797.0,20741.8,106729.2,37503.1,16159.1,36554.8,62375.0,53819.0,23662.7,23373.3,0.0,25063.6,
624,0.217,11694.1,15876.0,18678.7,12301.2,16481.3,20584.1,17399.0,15396.4,18120.0,16345.3,22041.6,100574.9,25422.4,13713.4,37513.8,86383.7,58191.3,11482.6,10125.3,0.0,19510.9,
625,0.383,17829.2,23447.4,19521.6,17445.1,21917.8,21972.7,18912.0,22279.9,25363.5,90351.8,35215.0,136013.7,87115.9,19444.0,48221.6,111177.7,171905.5,25890.1,47327.7,0.0,16388.6,
626,0.24,18048.7,23795.5,22688.2,18120.8,23748.7,24174.5,21727.8,19281.6,26733.6,22696.8,17175.9,89724.9,35376.2,13694.3,35424.8,87892.3,45923.5,20034.1,17496.3,0.0,27218.2,
627,0.2,13221.4,8314.1,8963.6,11155.3,10569.1,10570.9,9973.3,15011.0,17008.6,10028.9,20099.9,42990.0,12143.4,14304.7,33773.3,64122.3,18055.8,10509.4,11994.0,0.0,34696.4,
628,0.191,10989.1,16722.3,17848.4,16730.6,16352.2,20410.3,22407.3,11370.2,17433.9,39752.5,24284.4,48542.2,33684.3,8815.9,39802.9,109827.3,108621.6,22239.3,30425.2,0.0,13557.0,
629,0.192,5915.3,8266.1,9888.4,14213.2,6905.8,8361.5,11319.1,8661.0,13659.5,28292.6,25139.5,126892.4,35378.3,8726.5,48705.4,125084.6,45647.1,14202.5,20752.5,0.0,23561.9,
630,0.426,27875.2,32961.6,33078.9,26264.7,31931.9,35210.9,31050.6,20246.5,26536.9,22992.7,15220.8,88457.5,34694.5,16759.8,13857.4,42058.1,79277.3,22967.3,21474.1,0.0,18042.2,
631,0.396,12564.2,13578.2,15122.8,18017.6,12917.1,16935.1,18083.3,11902.7,17399.6,20723.4,19702.2,169698.8,47048.4,11771.2,36100.8,129292.5,153183.2,14842.4,18557.4,0.0,27695.9,
632,0.204,12271.3,21198.3,25211.1,28769.3,21806.6,26927.1,29298.4,16178.1,34424.4,48985.3,12012.4,145104.6,67586.2,9483.9,29769.1,72674.3,106975.1,40804.5,41459.2,0.0,21896.1,
633,0.288,21123.2,23936.9,25155.4,22793.3,27999.7,30291.3,29192.5,18592.4,25717.8,20487.4,21043.9,85148.6,33701.6,11379.9,26084.1,116997.1,118629.9,24209.8,20241.4,0.0,29382.8,
634,0.22,15489.7,17833.9,22797.9,24433.3,17843.9,24734.9,27289.8,11488.0,24875.4,40762.3,8377.8,22149.0,30981.0,11579.2,9895.6,17937.7,55132.8,28753.2,32374.4,0.0,23748.2,
635,0.199,9384.6,15716.8,20367.4,18964.7,14795.0,19007.8,20497.0,9851.0,20626.3,8381.8,12383.1,60947.5,19080.8,6355.8,23024.7,74451.5,52338.8,13440.5,7067.0,0.0,14864.2,
636,0.257,17921.9,30881.3,33912.5,30563.4,27482.9,33222.8,32239.5,13312.9,25304.0,63063.2,23794.6,229436.5,77370.1,12683.6,50344.4,183115.0,201683.8,25924.8,36321.7,0.0,30309.7,
637,31.774,32456.2,110584.4,104791.9,45969.0,41994.7,52748.3,50891.5,24913.0,36783.2,40341.4,16654.5,98514.1,43399.8,19864.3,26776.1,81019.5,89116.6,36899.9,45182.6,0.0,45866.6,
638,0.341,21250.1,42871.8,35625.5,26044.1,21813.9,25763.0,28306.9,13508.7,24425.6,24872.0,28458.8,68207.9,27852.7,15782.9,30909.1,104625.7,29407.2,25675.4,32305.3,0.0,44875.6,
639,0.322,16518.9,26110.1,23960.9,12789.1,19926.2,22266.2,18828.9,16205.7,22026.8,30041.8,12715.0,34923.6,20481.8,13033.3,16683.2,20475.9,16831.9,15450.3,24820.1,0.0,26855.4,
640,0.208,4119.4,7186.9,13967.9,13060.1,6682.4,8892.5,11688.8,6447.5,9206.6,23980.8,6889.2,48229.8,25073.9,5530.1,14918.3,32390.8,78408.1,11970.7,15565.8,0.0,9688.4,
641,0.243,17414.4,20373.3,19800.6,21663.7,21300.1,22815.9,22204.8,25381.6,37171.2,46963.6,26851.4,146666.5,57786.0,19902.5,49897.9,114288.6,86858.3,31255.3,34553.4,0.0,25107.3,
642,0.263,12141.6,11476.9,9759.8,9000.0,14341.1,14129.0,12257.2,13303.9,19889.6,25003.7,14988.9,82963.3,29261.7,9438.6,24979.6,51892.7,35670.0,15716.5,16369.1,0.0,29146.2,
643,0.506,21886.5,30587.1,31914.6,25781.5,32967.5,36924.0,33956.4,28861.3,45929.5,31397.2,19067.0,101270.9,59915.9,20117.9,19348.0,29699.6,85922.4,36421.4,30500.1,0.0,29722.6,
644,0.272,10641.7,15969.4,20788.6,19900.0,16624.4,24581.9,23454.7,12248.9,25735.2,18289.1,15616.5,43042.5,19347.1,8355.3,24402.5,64319.0,15289.3,20252.8,27694.4,0.0,25632.2,
645,0.222,8621.9,13354.6,19590.3,21784.8,16345.9,19851.3,20677.5,13485.0,19091.2,26075.0,8838.1,17370.9,18023.4,8459.6,13239.8,11913.7,22499.6,18787.8,27246.2,0.0,26461.6,
646,0.286,11080.5,16349.3,18710.6,14969.7,18515.3,25292.3,22048.3,22205.9,33917.4,27836.1,22836.0,38982.6,32348.3,14539.4,30334.0,26163.7,26127.4,25969.6,23971.3,0.0,22841.0,
647,0.273,22428.1,24450.0,28583.9,31961.3,24379.7,27125.5,30136.2,22322.5,29091.3,29825.3,25808.8,37720.7,31547.5,24121.3,26611.7,32360.1,25906.4,30388.1,32714.2,0.0,18664.0,
648,0.392,25090.3,31127.1,36689.3,32901.5,32815.6,38359.9,37869.4,29254.1,45926.6,41214.7,23438.2,90738.1,43518.1,21763.8,42095.1,93076.1,64991.8,37855.5,30817.9,0.0,31815.0,
649,0.259,21688.0,24200.0,26045.7,23558.4,24824.6,26818.4,25605.2,25008.6,28377.8,17984.6,18314.2,19341.8,20074.9,20615.4,22062.7,25716.4,16828.3,20274.7,17845.9,0.0,52390.1,
650,0.262,22841.7,24505.3,29538.3,35960.2,27743.8,31193.6,33006.8,20952.7,31338.1,34276.7,9349.2,29341.3,37429.7,15133.2,14999.8,20892.9,50262.3,35051.4,39699.2,0.0,25027.3,
651,0.253,6800.9,7428.5,7095.3,10616.4,9054.9,9742.1,10180.8,8795.8,9973.6,17823.4,14296.6,17794.8,14704.1,9980.2,13035.9,14108.5,14521.8,11649.1,15395.3,0.0,24772.4,
652,0.216,13092.5,15758.9,19369.9,21332.7,15686.9,16575.6,18434.9,14892.8,16943.2,33608.3,17366.0,25806.4,25745.0,15348.6,18138.7,21575.4,31344.8,21889.1,26342.2,0.0,31287.7,
653,0.209,6484.6,8053.2,12852.2,9559.6,5904.0,6956.9,7878.9,7094.5,8767.8,10251.9,8217.5,14636.4,9383.4,5760.5,9182.5,11286.0,10133.7,9412.6,10868.2,0.0,18484.5,
654,0.727,15959.8,22943.9,25328.5,23892.5,23598.3,28583.0,27834.9,20824.2,31070.6,23691.8,16703.3,37778.5,28633.0,16657.3,30645.2,39884.5,33174.9,24332.2,23739.3,0.0,19571.7,
655,0.345,6189.2,4137.5,4740.7,5950.9,4474.1,4015.0,4028.7,7694.3,9245.1,13276.6,11677.7,14351.2,11853.7,10797.4,13853.5,17784.1,11174.6,6118.1,9429.3,0.0,15391.7,
656,0.163,8952.4,7960.6,11400.0,11184.0,6513.1,7014.1,9100.5,8127.9,9326.7,8126.8,7784.6,6729.5,4410.7,8782.1,7811.4,4818.0,4482.8,8299.8,8788.4,0.0,26749.4,
657,0.241,6150.2,7896.5,9991.9,8789.0,8177.2,9785.9,8584.0,9556.1,10137.3,8074.2,8543.4,9562.4,7233.2,8026.3,9183.5,6379.9,6090.8,7866.1,7769.9,0.0,15726.3,
658,0.234,10586.2,10759.6,11907.4,15852.9,12136.5,14225.6,14934.1,9647.8,15995.0,20189.9,11568.4,12780.3,19781.7,10791.0,9056.1,7582.8,16294.2,17436.5,19654.9,0.0,32604.4,
659,0.194,10350.9,12931.6,17047.1,17199.4,13978.7,16791.9,19157.5,12264.0,20029.6,22806.1,7905.9,19335.1,22794.4,8165.9,12768.9,11994.8,20374.6,20445.5,23398.8,0.0,16989.1,
660,0.241,12246.0,13014.7,11601.6,12876.0,12747.8,12463.3,12290.7,8531.7,10677.2,16870.8,8761.7,9542.3,10122.7,8642.2,8754.0,9558.5,8614.1,11851.9,17678.9,0.0,33547.6,
661,0.276,15496.9,15338.5,13850.9,12708.8,16662.2,15027.3,13193.6,14516.8,12719.8,16196.6,12120.4,16171.1,10707.0,12732.4,14614.0,44662.9,11888.3,12078.8,19738.7,0.0,34890.4,
662,0.209,8878.5,7721.7,8948.3,10047.1,11189.0,10229.8,10757.4,13301.9,13548.1,13693.3,11765.1,25291.5,11817.4,10204.1,19170.8,43919.3,24307.0,10147.7,10909.2,0.0,20097.7,
663,0.184,6260.9,5865.9,10591.4,12288.1,6317.4,8194.8,9352.6,8229.9,11792.3,16886.0,11960.0,23419.4,17079.4,9828.2,16190.1,15925.7,15715.8,11280.7,16150.8,0.0,18475.9,
664,0.244,7065.5,12932.8,16284.8,21144.4,14698.2,15591.6,17980.4,13051.9,21788.7,23939.0,11618.6,17445.1,20560.6,9977.4,14595.4,16898.4,16911.2,22702.5,27232.2,0.0,18161.2,
665,0.206,9047.9,10546.5,14311.9,14734.6,11023.8,12880.8,13877.1,10780.6,12328.9,23497.5,10434.9,12660.0,22943.4,8907.3,9634.4,11254.3,18518.4,14051.1,16106.6,0.0,23214.1,
666,0.172,8322.0,10973.9,12395.5,13232.2,9781.2,10781.4,12048.4,10185.7,12942.1,13323.2,5627.0,19997.6,16217.3,5705.6,10191.2,20889.7,39381.5,12024.0,11579.6,0.0,15549.2,
667,0.242,12124.8,22112.9,26014.7,18807.1,20109.9,25789.3,24565.7,15434.3,31817.3,27238.6,13847.0,124147.0,29818.1,9429.3,33790.8,57842.7,76183.9,20855.3,21305.9,0.0,22728.9,
668,0.214,12885.6,16250.9,19737.4,15791.3,17046.1,20308.7,21709.1,11586.9,22530.3,25783.6,16864.9,64932.7,43756.1,12103.9,14259.1,25179.5,45571.2,23550.4,19354.5,0.0,22566.7,
669,0.217,7069.9,9695.8,13183.4,13666.0,14952.3,17321.8,16589.2,11861.1,21277.9,25348.0,10721.9,24555.3,18155.6,11829.5,11243.0,9440.1,15817.5,18264.1,20649.0,0.0,12618.4,
670,0.201,6304.8,9254.2,10778.5,12589.0,9029.3,8407.8,9049.8,11270.3,13098.7,18657.5,14889.7,14848.6,11962.3,11897.9,15435.4,14404.6,12967.6,10842.4,21560.6,0.0,11821.0,
671,0.226,12047.1,15351.3,17546.3,20425.9,20874.0,22317.9,21650.4,17931.0,26728.3,18146.5,11092.7,19778.3,19852.0,10850.7,16061.8,13413.9,16309.8,19456.0,22343.6,0.0,35274.1,
672,0.211,12529.8,8992.1,9549.6,8854.4,13076.8,14683.8,11191.1,16437.4,16139.0,15131.2,19673.9,13696.2,13579.3,20039.4,15541.8,15970.3,26050.3,8597.1,8875.5,0.0,31023.1,
673,0.252,16495.5,28049.6,31994.7,25770.9,33285.2,39421.7,37752.0,21963.7,36872.0,12745.0,12205.3,40118.2,11131.1,11617.7,21109.3,63898.6,25587.4,24398.3,18911.1,0.0,22303.1,
674,0.267,14311.4,23170.5,27027.6,24700.6,17659.1,21266.4,23507.5,11977.5,18356.2,32670.3,5802.2,51439.8,31185.5,7682.4,12522.5,51143.5,26789.8,22898.0,31937.5,0.0,27053.7,
675,0.206,11466.9,13261.0,12068.3,10623.7,13736.6,16038.5,14754.4,14170.2,18627.3,8587.3,14871.4,35679.4,21247.8,15732.8,18585.5,17796.4,12946.1,16004.3,9807.5,0.0,27375.1,
676,0.253,11671.8,11264.8,12722.4,14245.5,12192.0,10677.5,11634.5,12052.8,14364.5,17790.0,14161.8,12893.3,11890.2,12041.9,14472.0,16211.2,16242.5,12627.7,18488.4,0.0,37902.1,
677,0.176,11368.8,12913.0,11908.6,10559.5,11173.0,12331.6,11041.8,9549.3,10248.9,9168.4,17073.5,13310.4,6504.3,12427.0,12984.8,17683.5,10776.5,8123.8,9139.2,0.0,31108.2,
678,0.179,5053.7,4697.8,5586.7,7693.7,5777.8,5435.1,6909.5,6858.3,8435.9,22108.1,12338.5,14215.4,14922.8,8752.7,12593.8,27368.0,25273.4,8968.7,13274.2,0.0,16997.2,
679,0.22,8504.8,12981.8,15041.9,16153.2,12763.8,14478.4,14303.8,7316.6,16228.3,28738.8,10607.2,36562.2,26998.9,6657.3,11057.1,41856.5,59590.4,14792.4,21130.9,0.0,11218.7,
680,0.29,25508.5,34450.8,36135.8,29545.7,33453.0,35614.2,34336.3,23907.6,27247.9,29776.1,32508.0,164678.0,58868.0,18128.5,49502.2,183131.0,225481.6,25023.9,23256.1,0.0,18249.3,
681,0.224,7853.8,11542.6,16435.6,15016.9,10992.8,16848.1,16391.3,7874.0,18732.2,15966.1,12451.4,32184.7,18498.9,6826.7,13205.2,46688.8,22702.2,15818.9,11756.1,0.0,20345.3,
682,0.243,8589.7,10070.4,7420.4,9296.8,10521.5,11737.0,10888.3,10555.0,13611.3,9911.0,10470.7,11890.4,10163.0,8996.4,10074.5,8009.6,14392.8,9338.2,8263.6,0.0,25575.5,
683,0.308,30182.6,30691.6,27356.2,24663.5,31653.8,29750.6,28395.9,31358.8,33427.6,28083.3,28692.6,39959.1,28633.3,28880.8,34440.7,34807.4,32543.0,25200.8,23192.3,0.0,32865.3,
684,0.221,10857.7,18056.0,24085.9,22260.0,15606.4,19243.9,22132.7,12692.7,17652.8,25401.3,15192.7,18204.4,22220.3,10584.9,12926.8,18174.9,24159.2,20813.8,26801.9,0.0,41893.4,
685,0.24,9572.3,9654.7,12198.4,14350.5,8962.5,11183.2,11877.0,10094.2,10202.0,19285.4,10235.5,13790.1,8759.9,11633.2,13432.5,17679.6,14070.6,9596.3,18586.0,0.0,20550.9,
686,0.178,6072.5,6533.7,7456.4,8780.8,7856.5,6989.7,6655.0,7755.8,9299.7,11596.3,12217.8,27822.5,7587.4,7277.3,8436.8,10344.4,21740.6,6864.6,10845.3,0.0,28773.2,
687,0.224,15513.1,18064.6,21102.2,25677.1,16283.1,19455.3,23601.7,13086.2,18260.2,16709.6,9263.3,20862.0,26327.9,12211.7,12111.2,17504.5,20016.3,24980.7,19266.4,0.0,14315.7,
688,0.211,7770.9,11054.8,10739.3,10118.1,10335.2,14610.6,13515.6,8419.2,15116.2,9222.0,10807.4,20998.3,10045.7,8430.6,15103.3,29657.5,11490.1,11470.5,8144.9,0.0,20108.6,
689,0.322,15499.9,17239.6,15503.9,11681.9,16224.2,18573.3,17304.5,12013.8,16000.4,31313.7,19831.1,61538.0,38581.3,11613.5,19927.1,74762.8,131979.7,12719.2,12252.1,0.0,30933.6,
690,0.218,20524.4,26000.1,26308.3,26455.3,25243.0,26085.2,27721.2,17452.4,20445.6,27290.3,16063.9,36700.5,18612.1,15954.5,18678.5,60823.2,60277.4,24767.0,32588.6,0.0,16812.4,
691,0.318,34648.6,40062.3,41428.0,33639.1,33831.0,37995.0,36969.3,24905.0,27902.0,14680.7,11906.7,51703.4,17278.9,21789.1,16130.4,55801.3,55254.9,24451.9,22043.9,0.0,19471.9,
692,0.2,4320.5,7729.9,9385.0,6078.1,8141.2,11068.9,9659.1,6253.6,15386.3,17302.3,10200.2,47474.9,14251.7,6159.7,11872.1,24695.0,27219.5,9729.8,6907.1,0.0,15293.2,
693,0.285,6654.1,8710.2,11817.9,18140.9,10058.8,13542.4,17526.6,14044.3,24430.7,36478.7,23243.6,101892.7,52745.5,9151.6,41023.8,115627.2,75579.2,27350.1,33244.1,0.0,20573.1,
