Time (s),Var Fp1,F7,Fp1,Fp2,F8,F3,Fz,F4,C3,Cz,P8,P7,Pz,P4,T3,P3,O1,O2,C4,T4,A2,ExG 1,notes
1,3.263,15012.6,17850.0,24776.8,26378.4,15496.8,17879.4,20083.4,14143.3,21316.2,26209.9,19881.0,21038.6,20512.6,9252.1,11432.2,13496.2,19673.8,20544.5,27670.6,0.0,7736824.8,
2,3.154,12348.2,26539.7,34913.9,29195.0,25081.9,21568.4,23364.5,14847.8,18769.4,29740.5,14208.5,16977.0,24630.3,12466.8,13281.5,22381.3,26172.2,22288.8,30059.1,0.0,259488.4,
3,2.688,18299.9,16792.9,16624.9,13666.4,14767.8,17077.6,15634.9,20318.8,25310.5,21486.9,22318.8,35147.3,23861.4,18176.1,23024.0,32241.7,29179.7,17798.3,18573.3,0.0,203950.6,
4,2.851,13885.8,15245.4,13450.5,13956.9,16578.3,14616.3,15282.1,10494.4,13915.7,23210.4,7788.9,16628.9,18654.2,9381.6,8444.4,7760.3,20973.9,15060.8,20516.0,0.0,379538.9,
5,2.71,19394.4,23434.9,24583.4,30136.5,23459.2,24170.3,28632.3,19478.3,28195.5,28199.4,17204.2,32265.6,31305.3,17138.0,19795.9,26132.6,40515.6,28247.7,28744.6,0.0,1124536.2,
6,5.126,45907.1,62447.4,76424.9,75108.6,55790.4,59066.4,62275.1,46629.5,61869.3,70454.2,33163.4,60536.7,62366.1,36988.6,43051.4,46657.1,59381.3,68547.4,78861.0,0.0,44386147.9,
7,3.878,36051.5,45729.2,49719.9,58312.3,39903.8,41977.3,46356.2,36989.6,39068.9,53361.4,31532.7,33080.0,45240.9,22031.8,27666.0,28367.1,39465.1,66416.6,52905.5,0.0,458058504.9,
8,6.176,24283.2,63747.6,94889.6,106503.3,28547.7,43961.5,61145.0,39908.3,45370.4,67578.0,5667.3,46643.8,59868.1,12445.2,23315.4,20150.6,54132.8,82134.7,65072.5,0.0,2858754085.3,
9,0.937,38177.9,33814.2,50298.2,59069.6,22875.8,97888.7,32250.4,18045.6,72310.4,17350.7,17306.0,23572.1,23433.0,14657.7,17033.2,25691.3,23395.6,26873.0,21010.1,0.0,3406014721.3,
10,26.125,358963.9,1114258.3,814252.1,557563.6,331363.3,345561.6,337719.3,306086.5,445863.3,429569.8,247703.7,412677.4,398653.0,183764.8,249495.4,312603846.6,445339.5,468865.9,321728.9,0.0,50311665622.3,
11,3.132,71915.2,139893.2,119241.4,137977.4,107267.6,108705.7,112713.7,64244.3,102848.8,124791.0,35556.7,88979.3,164345.4,32728.5,59584.3,662354.4,105695.6,186754.6,117886.4,0.0,948167356.7,
12,1.858,13342.4,16133.2,19739.8,44933.4,13224.5,20554.5,22171.3,21216.8,23946.9,14033.8,19435.7,25198.8,18607.2,14303.8,21591.3,27782.0,28683.4,16811.0,14456.9,0.0,13269584204.1,
13,5.709,18893.1,161554.1,136861.3,344145.8,22647.9,26395.4,27715.0,21581.1,10311.4,14062.9,10456.3,8262.2,10988.0,9434.1,10365.7,18783.1,17821.6,21644.3,13749.0,0.0,12327958317.3,
14,0.389,18585.1,19822.8,24436.0,133945.5,23002.4,24462.0,25762.7,23975.7,21305.8,21790.3,18532.0,20397.0,18684.9,18918.9,19133.8,19863.1,20955.8,34931.7,24514.4,0.0,471387929.4,
15,0.182,10114.0,13354.8,12413.1,13805.9,11122.3,13741.4,16125.6,13483.2,14546.4,18917.4,12309.8,22723.1,22132.0,11769.0,13712.9,15477.4,33231.1,25527.3,19751.4,0.0,463640777.5,
16,0.561,17438.6,15810.9,14031.4,155355.3,15822.2,15376.4,15968.7,19537.4,15920.5,17131.6,18317.1,15101.7,14973.3,15711.7,17873.6,18095.9,14557.8,22272.7,21400.2,0.0,972752.3,
17,0.582,12800.1,13295.7,16379.4,22118.4,17321.3,18584.4,21158.7,14934.1,19590.8,16462.8,10403.8,20015.4,19256.7,11828.3,16306.6,502628.9,19640.9,23060.3,18558.2,0.0,13703719.9,
18,0.176,5043.8,4060.2,5742.6,6248.3,6412.6,6160.3,8046.4,8376.1,14034.4,14696.8,8154.0,25286.5,22021.2,6764.1,11736.2,20703.0,32416.2,14577.4,11753.8,0.0,11212503.8,
19,0.609,14095.6,15303.3,13208.1,13247.5,16961.0,14283.5,13824.7,18349.3,18783.2,13039.8,18888.4,23671.8,16521.9,15723.2,21903.7,22801.7,15904.7,16262.9,14303.0,0.0,5879076.8,
20,0.697,11033.1,15376.4,17308.1,18919.6,14231.0,15129.5,17260.5,11319.8,17347.4,14885.7,12249.8,21918.4,17810.8,8483.7,12871.6,13313.8,18693.2,19853.8,18278.9,0.0,1193492.0,
21,0.482,12094.2,14359.9,12630.3,15763.1,15776.3,18425.0,17087.9,26513.1,23873.4,17120.7,12623.2,17115.1,16856.0,13087.0,16747.6,15591.7,16599.6,22000.9,16248.2,0.0,475537.9,
22,0.199,7699.4,10330.9,15677.1,16196.4,12795.7,16333.1,16547.3,12847.9,16246.4,14786.8,10241.9,9740.4,12597.4,8717.4,9103.7,9459.5,12573.9,18305.2,17708.1,0.0,461674.1,
23,0.196,14036.3,17649.3,15780.9,16780.0,19682.5,21113.3,18805.3,19233.8,22645.3,27660.3,14858.5,27656.6,25975.1,9945.5,21337.4,18224.1,30985.9,21715.6,21481.2,0.0,399045.3,
24,0.366,19880.4,16949.5,21496.7,23984.1,21623.9,24679.3,25200.3,21141.7,25894.0,29710.4,20367.1,24788.3,25258.1,20827.6,17484.4,19374.9,20864.0,27255.2,29490.3,0.0,329349.4,
25,0.173,5841.6,6518.3,5144.7,6020.9,6896.5,9959.8,8795.2,6637.8,10531.5,5639.2,10076.1,4127.9,3635.5,5972.1,4859.6,6420.7,4039.8,7160.0,7895.2,0.0,366747.0,
26,0.174,6380.9,6162.8,6988.0,7772.5,6292.2,6035.9,5901.4,6475.7,6690.7,12290.0,7087.3,9916.2,8408.3,5976.2,5972.1,7252.2,14415.1,8832.8,12022.6,0.0,247119.6,
27,0.206,8942.7,13849.2,16120.2,16763.3,15200.2,18399.2,18233.9,14699.8,19673.1,12282.1,9032.8,23686.1,14319.4,6069.3,12492.6,15943.5,11958.3,17729.5,17977.5,0.0,283685.6,
28,0.178,4547.5,4229.1,6128.0,7369.4,5702.8,6038.6,6649.0,6038.0,7565.3,16305.9,9307.4,13433.2,14247.0,5080.5,8096.9,12388.5,24071.8,9687.5,11576.8,0.0,186610.0,
29,0.203,8569.0,10120.0,9867.1,7836.9,11861.2,14667.4,12598.6,13439.8,22674.8,21447.7,14871.9,40685.2,22938.9,12109.9,17785.7,24679.1,20967.3,13839.4,17278.8,0.0,121089.5,
30,0.346,21776.0,21705.5,18237.8,18526.0,20400.8,18418.9,15373.4,14968.6,15522.7,30921.0,18931.1,21075.4,28170.2,17081.0,16786.2,19744.9,33149.5,19285.1,23239.5,0.0,96755.8,
31,0.204,6055.7,9161.4,11320.1,11108.2,8069.3,11086.7,11605.2,8133.0,11602.9,12441.1,9804.1,11531.3,10965.2,8371.6,9435.3,20682.0,10929.5,13342.7,14028.2,0.0,126872.1,
32,0.224,14849.5,14120.1,11099.4,9368.2,15068.0,13694.9,12476.2,18673.9,18076.9,13242.4,27179.0,24877.3,14530.6,24565.2,26253.5,30766.4,20200.2,12796.3,13189.3,0.0,136621.9,
33,0.306,8833.6,8553.3,13199.2,19343.3,6627.0,9662.2,11794.8,10441.1,15380.4,25188.5,23443.2,20039.1,23471.4,16409.1,18897.6,21804.2,22135.5,17240.4,27834.1,0.0,137532.6,
34,0.222,6425.6,7169.1,8114.4,8903.0,10184.7,11553.9,10176.4,8000.1,15188.6,15016.7,12169.4,14993.5,15503.1,9125.4,10750.8,16762.0,11434.4,12484.6,16037.1,0.0,76240.9,
35,0.23,6732.9,10700.8,13283.0,15237.5,14636.2,16618.3,16728.8,15166.9,22748.2,24714.0,11319.3,18787.8,25521.9,10935.6,16192.7,13777.1,20512.9,20421.0,24539.3,0.0,46797.6,
36,0.199,12800.1,17336.8,19263.2,21216.2,21199.3,24066.2,22542.3,17418.9,24399.9,15874.7,5324.8,17788.3,16228.1,8793.3,11884.7,8318.9,15747.3,19804.8,19482.7,0.0,77559.2,
37,0.207,8683.2,9638.7,11781.6,13775.1,12354.7,13866.5,13734.7,6664.8,12596.8,15201.5,6688.7,7785.7,9923.2,7608.6,6373.7,5617.2,9552.8,11837.3,19150.7,0.0,90479.3,
38,0.194,6490.0,6558.7,8188.6,9936.3,8542.8,9109.4,9005.4,6524.3,9180.5,7084.2,6450.6,9311.7,8965.2,6853.0,6939.1,6927.0,8075.0,8319.9,7984.6,0.0,104316.7,
39,0.211,12844.4,16988.1,19153.8,19088.6,16438.5,22316.1,21095.3,17015.0,22530.9,23384.8,11741.3,17960.2,19356.1,14774.2,15374.9,14190.0,17140.9,18906.6,22564.4,0.0,89753.6,
40,0.218,7518.7,11803.9,14357.9,11642.1,8911.2,12299.8,13850.3,8352.8,14355.8,17734.8,9605.0,34167.9,21847.8,6775.1,13627.1,15851.9,18452.1,14614.9,15085.4,0.0,105883.4,
41,0.24,5775.3,5431.1,8828.8,12069.0,4514.0,7624.3,9660.8,6620.9,7678.3,14431.7,9307.8,7746.6,12418.8,8767.3,7816.1,9273.7,12093.7,10374.1,14732.7,0.0,117722.3,
42,0.255,7185.7,9381.9,13537.6,15152.5,8762.9,11931.8,15567.5,6842.6,17393.8,24581.8,5022.3,8306.8,17445.0,5760.7,4811.0,6446.8,14717.8,16377.9,21354.8,0.0,100560.7,
43,0.223,4258.4,5518.1,7939.4,9488.6,7930.3,7651.5,8322.7,7061.0,11113.5,12521.4,6748.7,17597.6,13017.9,5540.7,8251.4,14056.1,14718.9,11643.5,13692.9,0.0,117715.6,
44,0.182,9398.9,13450.6,15968.9,15140.3,17486.1,18974.9,17986.9,12464.8,19427.1,19601.3,7689.7,15617.8,16037.7,8839.4,11232.1,11826.0,16319.7,16866.0,17969.6,0.0,106569.3,
45,0.2,11897.0,16992.1,18508.7,18900.2,17282.6,24694.4,24579.5,16560.4,31966.9,29030.6,12824.1,34398.8,30938.3,14100.5,17388.5,19423.1,31942.8,25382.5,25779.5,0.0,125837.7,
46,0.239,14033.6,20799.0,20963.2,21494.4,19666.5,23537.3,23067.3,13125.5,23241.3,13823.8,13913.0,18532.4,15652.8,9790.8,13795.0,16726.0,17026.8,21128.5,18583.4,0.0,101380.1,
47,0.224,13830.0,18286.5,20822.3,23591.8,17036.6,20029.7,21066.3,11812.2,18828.7,20925.4,10494.8,26167.4,27092.4,10654.2,15453.5,19967.1,33074.1,20071.9,21619.9,0.0,145550.9,
48,0.191,10881.2,12005.3,13430.2,20070.5,17650.8,19786.4,19187.4,12388.1,21090.9,15945.9,10333.6,22600.0,20836.8,8279.9,13919.1,14332.7,15980.5,20623.4,19933.5,0.0,152971.4,
49,0.208,7316.9,7841.3,10589.7,16116.6,8416.1,9555.2,10808.1,8488.6,12951.1,18170.3,8055.9,16863.1,15187.4,6247.1,8448.1,15236.8,17166.0,13736.7,23516.4,0.0,151819.1,
50,0.229,6943.9,8495.2,11884.0,12514.6,10817.4,10360.6,12394.8,8363.0,12581.9,15857.8,6179.7,16401.6,11976.3,4630.8,10068.2,12653.7,17881.1,10980.8,14215.7,0.0,156241.2,
51,0.193,6883.0,7074.5,8036.5,9958.1,7000.3,8446.9,7842.9,6662.5,7624.0,10744.6,7214.8,15521.9,14110.9,6368.6,11723.7,8780.6,12993.1,10115.5,11838.0,0.0,148831.1,
52,0.221,16857.4,13886.1,14335.5,11850.4,16361.0,17228.4,15490.9,12977.6,16141.8,7255.8,7053.0,12597.3,9118.0,12044.0,12472.8,13280.6,10711.1,11217.2,11290.0,0.0,171955.1,
53,0.18,9389.9,11795.6,11774.0,11602.2,13090.4,13356.0,12206.6,10856.5,14574.0,11997.7,8665.0,14194.9,9990.2,8841.1,12762.6,8861.9,11303.2,10565.0,14335.1,0.0,104914.8,
54,0.212,5664.6,8109.4,10412.4,8633.4,8684.9,10826.6,12100.9,7276.8,13958.6,12345.4,5172.4,21027.7,12276.6,5886.0,7641.1,10173.8,11796.2,10231.0,12456.7,0.0,106806.3,
55,0.216,15073.8,18957.2,21796.6,18000.7,16799.3,19279.5,19899.1,10567.4,17881.6,15431.8,9389.7,17178.4,14715.9,8765.6,9647.1,14519.7,13122.0,15844.7,14424.4,0.0,114822.8,
56,0.242,7752.3,7928.5,9169.3,10931.7,7288.2,9590.5,10764.3,8361.3,12203.2,11939.4,7609.7,11447.7,11922.2,8489.6,8871.7,6385.9,9635.9,12157.0,14302.6,0.0,132262.6,
57,0.196,9449.5,11203.1,13780.9,14389.1,11845.0,15050.1,15263.8,10344.0,15137.0,14321.0,12328.8,13173.5,16687.2,10069.9,9793.2,10613.1,16743.3,15733.8,12658.3,0.0,104930.1,
58,0.231,20584.8,21062.1,21795.0,20926.1,18563.0,19513.6,20721.7,17851.8,19390.6,27256.1,14918.4,30835.0,30576.4,16325.8,18721.0,20733.2,29115.1,22427.4,21923.8,0.0,90828.7,
59,0.207,9692.5,15563.5,19679.1,20785.5,15814.8,18830.9,21388.5,9572.7,19030.9,29828.4,6156.5,21243.3,22258.2,5376.4,10954.6,24533.5,27712.5,20920.6,26868.8,0.0,90130.9,
60,67.682,34066.2,181198.9,220974.2,52053.3,39477.3,39487.6,36388.6,21535.1,21025.4,22174.1,13364.3,20433.4,18869.3,16915.2,17760.7,15482.5,15812.6,26492.7,26817.5,0.0,144471.2,red dot
61,5.165,14092.0,26721.9,26272.7,19593.7,16206.2,17386.1,17444.5,18607.4,19149.2,33334.8,10827.5,15410.9,23128.9,9084.8,15045.1,8636.3,20870.3,19953.0,33708.5,0.0,79939.8,
62,0.552,9237.9,10547.6,8869.7,26153.1,9132.7,8247.2,10439.0,12251.3,12346.9,14587.1,16746.8,14573.4,14091.6,13187.9,9662.7,13745.2,12946.6,14762.2,13627.6,0.0,133552.0,
63,0.654,9729.3,13603.0,12033.8,10987.4,12315.6,14436.8,14527.1,11430.5,13493.0,16522.9,15034.2,14998.8,15915.1,11979.4,15453.3,11700.9,21783.3,13900.0,14160.8,0.0,108739.2,
64,0.492,12234.4,19687.8,18672.8,15419.0,21803.1,23579.0,20794.6,19917.3,24810.2,10385.9,10370.9,16497.5,17811.3,10464.4,15836.0,13825.5,15061.0,18815.8,11111.6,0.0,74366.3,
65,0.573,8798.8,12794.0,16058.1,15856.7,14188.7,12964.4,14177.4,14334.2,16428.2,16475.5,17142.2,16949.9,11000.5,14839.2,17281.7,17524.3,12461.2,12669.9,17198.3,0.0,109419.9,
66,0.417,15082.7,15005.8,15250.5,15474.0,15471.7,16256.0,15963.7,16206.4,19863.2,22742.6,13579.6,20126.7,24112.2,15419.5,16483.5,16088.3,21012.7,18779.6,19895.5,0.0,166778.5,
67,0.494,12434.9,10115.3,11094.0,11002.1,13004.6,12180.4,13230.1,12994.8,16674.2,11831.2,18493.6,17495.2,13846.4,18212.0,15716.6,15617.9,13079.5,13448.7,12229.4,0.0,100292.1,
68,0.588,12124.2,16498.6,15815.9,12010.1,16963.3,20393.1,18395.0,15680.9,23165.0,12340.8,13138.2,25147.0,14940.9,12057.6,15494.3,19105.2,15861.7,14906.6,12213.0,0.0,84091.8,
69,0.441,8351.5,16737.0,22985.4,20199.0,15958.4,19990.9,19520.8,13539.7,19517.7,38661.6,20799.9,76066.8,50676.3,11714.0,35036.8,88901.0,60618.5,24296.5,29134.3,0.0,97079.8,
70,0.767,9213.4,15286.4,13510.3,10386.8,11944.6,13233.4,12077.3,11392.5,13843.4,11138.5,9718.9,12648.8,10969.8,8645.7,14324.2,20962.6,8097.1,11303.4,13820.4,0.0,125109.0,
71,0.812,7168.1,11607.5,9263.7,6974.2,9336.3,17188.8,10033.9,8358.0,10182.9,7564.7,6116.3,16307.5,12145.0,5114.2,8816.0,9773.2,10429.4,8811.8,8565.6,0.0,93971.1,
72,0.458,15661.3,17411.1,17657.0,20484.5,18455.8,14264.3,19684.7,23771.2,20422.8,19501.1,15173.2,26784.0,25063.9,11975.0,23067.2,23057.7,20852.8,26581.8,21396.7,0.0,121999.3,
73,0.501,12413.1,18551.9,23992.8,33316.2,19767.3,23741.0,24746.5,19745.4,26965.5,23562.3,13985.7,58384.3,33996.5,13355.7,19474.5,34266.9,32762.2,24496.3,26206.6,0.0,122080.7,
74,0.61,11420.0,18446.2,18665.4,25147.5,13653.4,20578.0,17498.5,11801.3,11542.4,40680.9,17626.5,24617.8,23732.1,11384.0,14227.0,26312.1,31711.4,20515.9,43766.4,0.0,124176.1,
75,0.456,13712.8,12693.2,11685.8,13219.4,10862.1,10117.3,11367.3,14087.0,10110.6,17652.9,13021.5,10991.6,12327.4,11928.0,12659.0,13149.9,17100.6,13676.0,17080.1,0.0,109702.4,
76,0.608,19201.8,25079.1,28379.6,33618.3,24179.8,27614.5,29164.2,25320.3,29485.5,33886.2,21120.6,31286.5,33557.9,20670.4,25642.9,23619.8,28571.0,32926.8,37975.5,0.0,131630.7,
77,39.103,5917.1,26048.3,29574.6,20537.7,10359.3,12869.1,15797.2,9175.0,16120.0,32263.1,7482.1,26720.5,25445.9,8504.7,11638.7,14567.2,37108.6,18715.7,31251.5,0.0,121131.7,
78,0.442,23667.8,34064.9,27430.3,24920.9,34025.9,40571.2,33937.7,30191.9,35791.2,31856.6,25109.5,47545.9,34934.4,23377.0,34447.2,47497.4,38748.6,31143.5,26111.9,0.0,159190.9,
79,0.279,13489.3,11683.8,9276.6,8305.9,13402.5,13032.4,9379.4,16547.6,17750.3,13547.5,25242.1,55970.0,20055.0,15555.3,32001.7,81616.3,48143.7,8847.0,12510.0,0.0,132791.2,
80,0.273,20343.4,26156.0,36711.4,42985.2,28871.2,45194.8,41992.3,22332.5,36720.4,20519.7,13827.5,51248.4,24038.9,15079.7,26056.5,66217.2,14385.4,39852.1,29054.6,0.0,90525.5,
81,0.249,12370.4,16108.2,17734.6,19905.1,12923.6,15220.2,19591.4,10948.2,16802.3,30136.0,13636.5,41385.8,31550.9,9421.1,16894.3,38556.9,52596.1,23926.0,29067.5,0.0,120493.4,
82,0.283,7751.5,16763.2,23546.4,17664.2,14635.6,18699.8,19821.2,8489.2,13699.8,15098.2,16516.9,42110.2,10011.1,6613.4,8860.2,80387.6,34011.1,17876.4,14146.2,0.0,126703.3,
83,0.434,12412.9,21819.9,24633.4,26775.6,18854.0,24103.1,26257.3,10150.4,19141.0,26076.9,18853.8,27972.5,18019.0,11699.4,14435.3,39569.5,29718.5,24320.7,23920.4,0.0,158294.7,
84,0.26,13479.9,15462.7,14442.2,10544.2,13841.8,15241.2,12808.8,9508.8,11234.6,11397.9,7068.8,18440.0,11686.0,11209.7,6446.0,19935.7,12155.6,9806.5,13492.5,0.0,170325.8,
85,0.571,20664.1,36915.1,42940.8,39433.7,33383.6,41116.0,45070.1,26647.0,43894.7,45998.4,20868.4,53651.5,44950.5,17981.3,34089.5,61223.2,44075.4,48573.8,48288.1,0.0,109248.3,
86,0.474,17938.3,17974.5,16475.1,18620.3,21906.7,23399.1,21747.3,19331.3,27148.3,20119.1,12563.3,52800.6,27246.6,10812.3,21775.3,29839.6,32633.2,21936.8,20581.8,0.0,123662.5,
87,0.309,13881.1,17814.6,19464.6,14237.6,14863.7,19794.5,20464.4,13504.4,25359.5,22585.8,12784.8,47435.2,24980.5,9513.2,19553.8,37233.8,20829.3,21798.1,17253.9,0.0,116733.2,
88,0.238,13320.5,13372.6,13708.6,14889.0,10607.5,10686.6,11507.8,13900.9,13620.9,20421.3,27064.5,43785.2,17530.4,16394.5,31576.9,60324.8,25847.9,13969.8,20534.2,0.0,100475.4,
89,0.42,15176.5,14623.2,19402.6,24918.0,16570.7,19140.9,20452.4,14273.5,16730.5,43520.3,23951.2,78996.2,41344.9,15286.7,33563.3,88515.7,77809.5,21692.5,34044.7,0.0,124329.3,
90,0.236,10244.9,17192.1,19830.5,19019.8,19259.4,21796.5,17719.0,17614.4,20317.8,11844.8,13514.2,24764.4,10733.3,12046.0,14383.4,25287.9,10932.9,15037.6,14595.6,0.0,108205.8,
91,0.221,9551.8,12625.0,18003.7,22636.4,15179.3,18216.9,20770.6,15901.9,20469.2,26638.5,10029.4,34447.5,24561.0,11833.7,18893.0,22374.2,38740.6,21151.2,27985.9,0.0,117795.8,
92,0.233,18971.6,24256.1,28489.9,25222.8,25123.8,27548.1,28524.7,28573.9,34297.6,21871.6,17621.3,38711.7,25693.0,19136.2,31321.4,27937.0,34747.7,27658.7,20664.8,0.0,84178.7,
93,0.271,10869.8,11480.9,14743.3,16102.1,8987.4,12893.8,14323.5,6525.8,11897.7,16594.5,6338.2,11611.7,12491.9,6163.1,7275.4,9979.1,14570.2,14462.8,16158.4,0.0,78271.4,
94,0.272,13358.7,21409.4,20591.2,17973.7,18002.2,19853.3,20524.6,13094.1,19062.3,27380.0,9440.2,35935.0,25660.4,7839.4,16516.0,31279.3,39875.9,20660.2,25089.5,0.0,70346.9,
95,0.588,12727.6,16421.9,19497.8,24850.0,10869.9,15798.2,20856.1,9931.1,20019.6,19478.3,26720.2,100412.5,22749.0,8724.6,40569.9,117500.6,39811.8,19739.6,27534.2,0.0,61803.6,
96,0.224,6257.7,5684.4,15741.1,30934.5,7508.5,10847.6,17144.2,8309.3,10775.7,26795.4,19915.5,30115.2,20199.5,10120.4,18426.8,44431.6,35349.6,18999.1,34546.9,0.0,54730.0,
97,0.385,10896.3,12797.4,13576.5,16654.3,14684.9,19981.0,18056.8,9062.6,19120.2,15507.5,7847.2,73690.9,24928.2,5454.2,16478.0,53318.5,83437.9,14732.7,15381.5,0.0,84072.8,
98,0.391,19905.3,22202.0,18108.0,19609.6,21674.3,21740.3,23472.4,21158.5,28481.5,37212.3,16732.5,99486.1,51826.2,13242.8,35306.3,82925.3,137034.9,24616.6,21547.7,0.0,113580.4,
99,0.286,14699.4,13003.9,17468.5,18015.4,17367.2,19142.0,18402.3,19644.7,25493.4,10780.7,16578.8,46878.5,22855.9,13101.4,26107.1,43932.0,24989.7,18533.4,18000.1,0.0,104055.7,
100,0.231,11159.3,13254.5,18674.0,24263.6,16727.7,19949.0,25150.7,16849.8,25758.1,33156.0,12468.4,38872.1,31730.8,8740.4,23263.9,46932.7,41278.3,25097.5,32403.3,0.0,157395.6,
101,0.211,12017.8,13877.9,14538.2,14880.7,11082.3,13007.1,13787.3,12534.3,14547.9,22092.4,20381.5,76273.2,29524.2,8694.8,31586.9,89202.3,43523.0,14555.5,19144.0,0.0,166824.1,
102,0.434,14802.6,17734.6,19540.6,23724.3,20184.3,25149.7,25210.8,21505.4,34530.1,35154.9,34107.1,113569.0,47828.0,18805.8,44331.5,108229.7,86903.3,26881.8,20668.6,0.0,133104.1,
103,0.227,19123.8,23602.1,22609.5,26052.4,23732.6,25404.5,27902.3,16929.5,26198.2,28022.4,17960.1,58553.4,34693.6,13022.3,22403.2,53446.2,35654.5,29066.4,25370.5,0.0,134328.5,
104,0.215,10382.4,14144.7,18194.4,20747.5,17428.4,24104.8,22207.5,15554.7,24949.2,18587.6,17655.3,36191.6,26692.7,11242.7,22081.4,57618.1,25351.5,22977.0,15790.4,0.0,153641.5,
105,0.284,24039.9,32350.3,42715.7,40895.9,33301.1,43668.1,44613.1,21937.9,39464.5,27328.6,14534.9,62526.7,25717.2,16866.1,19250.2,113932.3,41859.1,39613.7,32873.5,0.0,167572.2,
106,0.475,13867.0,14943.3,27605.6,31065.1,18550.6,26285.1,30952.1,21540.9,41390.1,38469.7,16515.6,87769.9,57940.2,14279.2,27332.5,42413.8,86151.0,35821.4,30297.9,0.0,131877.7,
107,0.244,12305.1,12091.0,11825.7,13624.8,11433.3,12163.9,11990.6,9365.1,13554.3,11415.3,13385.4,33937.8,12025.0,8225.5,13476.1,31079.3,14970.3,12174.4,11972.1,0.0,63459.6,
108,0.23,14010.6,14155.3,16255.3,22868.2,13476.4,15204.6,18816.4,9475.6,17983.5,27715.9,9441.6,77649.0,36354.1,6713.9,21613.8,63150.1,110973.5,19306.3,29534.5,0.0,75968.3,
109,0.311,15601.0,21333.1,27402.6,27855.9,20091.5,23458.0,25299.0,23979.2,29991.8,53415.4,29245.4,123455.2,66956.2,21318.3,51567.7,88013.7,90303.0,32870.5,38362.0,0.0,85408.5,
110,1.027,12492.4,13474.4,15526.7,15282.0,11586.5,12408.7,13901.2,10923.6,16374.2,16210.4,21713.4,31037.0,16560.7,13672.5,17669.1,43940.5,17312.3,16021.4,17771.4,0.0,73319.7,
111,0.379,18972.2,27043.3,32474.2,31019.3,26202.8,33260.7,31948.2,19202.9,31530.4,22953.5,11998.7,37741.7,22956.1,13051.5,23404.9,39133.7,23398.4,44915.2,22461.5,0.0,113945.4,
112,0.269,10677.1,15954.8,18783.1,25713.3,13677.3,18335.4,21603.3,11155.4,17284.4,33548.8,11319.7,33423.1,27373.3,8780.8,16106.3,50467.0,51666.9,22372.6,30212.8,0.0,105544.8,
113,0.238,10955.4,15164.4,17868.3,11642.6,12445.5,13429.4,13582.5,12169.8,15827.9,20946.4,21741.7,67741.5,34603.0,13809.5,23718.5,43409.4,94137.5,17795.7,16769.2,0.0,101942.2,
114,0.248,9968.4,13978.9,13134.8,12291.2,11787.4,13437.2,14549.1,9027.6,18628.1,38076.9,14579.9,124616.6,56841.9,8882.3,32665.6,80303.0,82534.2,19045.5,22308.8,0.0,98661.7,
115,0.226,21549.7,28684.6,40148.6,33487.8,32418.7,40150.6,40520.3,22664.1,34890.8,25259.1,14226.1,108191.4,46927.9,16533.6,42783.5,77376.0,93118.3,38031.8,22002.7,0.0,189981.5,
116,0.384,16379.3,27403.9,42831.9,46759.0,31860.2,41382.7,45048.1,19566.7,38875.0,34686.2,30485.1,54804.0,29935.4,21112.8,29837.0,100209.5,73268.2,45924.8,47676.6,0.0,168562.9,
117,0.459,11208.2,17432.8,21180.7,24505.7,22246.6,30731.7,30067.6,19524.8,40286.0,64301.3,32454.8,74139.5,54703.6,15044.1,39453.4,97900.5,112671.0,32589.6,42787.7,0.0,265104.0,
118,60.863,16842.0,55875.1,42951.1,18072.4,21324.2,26206.7,24089.7,10779.8,19649.2,21638.9,15063.9,49119.0,25009.8,6744.6,19802.2,39792.3,69623.8,16489.2,15746.2,0.0,205626.8,
119,0.385,25512.0,38229.3,36460.7,27758.3,39430.1,42140.5,39115.5,38348.1,45836.5,26877.4,22465.6,42838.3,35439.5,26642.0,35622.9,28601.7,32249.5,34452.5,26399.4,0.0,250913.1,
120,0.468,14493.6,16430.7,19122.9,19828.9,15978.1,17483.0,18910.3,16551.7,20425.4,28269.8,24293.0,28148.1,27790.7,18516.6,19277.2,24212.7,32037.6,30579.2,25429.1,0.0,204310.0,
121,0.336,9388.8,13797.3,19483.9,18856.9,11398.8,16523.6,16232.2,8119.9,15458.6,22586.9,9454.7,21950.0,19777.3,7465.3,9169.4,13992.7,24694.8,19143.8,19893.8,0.0,134917.1,
122,0.524,24261.9,26770.1,29925.3,29171.3,29905.4,32133.3,31385.9,29735.7,39410.2,27793.8,16244.2,31411.2,29400.5,25407.5,25352.2,22192.8,28543.1,30839.0,27276.1,0.0,105304.4,
123,0.3,7365.9,8418.7,10616.8,10740.9,9959.7,10919.6,11597.6,9015.8,10266.8,17806.5,11569.6,24446.4,16703.1,8470.7,13695.0,33425.6,21168.1,12611.9,18154.6,0.0,154492.1,
124,0.419,8286.3,8357.2,7410.9,9109.8,10168.1,10843.9,11180.2,12496.1,12140.3,10450.4,13696.8,18624.2,11997.8,11757.9,18042.0,21627.4,11350.9,11619.5,9893.1,0.0,147973.0,
125,0.396,7896.4,9855.0,13296.4,14404.7,10885.1,13841.8,16392.1,9480.7,17050.7,15196.9,9262.7,21983.8,19212.3,8323.9,10604.7,14293.7,19845.1,14936.1,16278.5,0.0,154609.7,
126,0.466,10855.0,16537.7,18692.9,16973.0,16262.7,21642.2,20359.0,12148.4,21214.5,19042.7,8826.9,26528.5,20206.2,7431.4,15510.3,28285.6,20110.9,20356.5,18622.9,0.0,169720.4,
127,0.567,18246.1,16819.1,17762.1,16408.6,18881.8,18399.5,18911.2,16366.0,18083.3,19354.5,13319.7,24479.9,20539.1,13509.5,17319.1,17907.6,16531.5,20475.1,18368.2,0.0,214395.7,
128,0.411,8446.0,8316.1,9790.9,12060.2,9823.2,9789.9,10842.6,10426.0,10794.3,6981.8,12509.5,7236.4,6898.5,11959.8,10733.4,10145.7,8679.2,15481.1,9627.9,0.0,175225.0,
129,0.365,11022.0,12857.5,12189.6,9081.1,15625.3,14325.7,12172.6,11470.9,15897.3,11718.4,14967.0,21189.6,15151.5,10110.2,12322.3,21428.7,23135.0,10505.6,10710.9,0.0,224608.3,
130,0.408,10615.5,11245.4,9607.3,10586.1,11036.8,11579.4,10468.9,9525.7,11651.6,20921.9,16640.2,26148.5,15721.3,12852.7,16009.8,35935.8,21788.4,11384.0,15717.8,0.0,197301.0,
131,0.35,7566.4,7975.4,8871.8,9447.5,8880.9,9128.4,9878.5,9561.5,12479.2,23594.4,10813.0,28923.3,21382.7,8667.1,14026.8,21754.4,27461.8,13613.8,18925.5,0.0,216222.4,
132,0.385,16494.7,15717.2,13456.2,18171.8,17547.6,16861.0,16728.9,16342.4,18740.1,21967.5,12155.3,25264.2,18762.1,13387.1,13548.4,14117.2,17343.5,18143.4,21875.3,0.0,196275.8,
133,0.47,15182.7,18270.3,20766.4,22732.9,16625.9,18885.9,19351.8,16386.1,14488.5,25220.0,18447.0,26011.4,21657.0,13898.4,19151.2,26808.9,24371.6,26900.0,25635.6,0.0,231755.1,
134,0.324,12141.5,14293.5,19484.1,21755.4,18082.6,19492.6,20907.8,17347.5,25947.8,20510.6,12721.6,20666.5,18155.7,13833.2,16675.1,27636.8,51962.0,22640.0,22553.9,0.0,235466.8,
135,0.336,13977.4,15241.3,19360.8,28725.2,17920.6,21746.8,22542.6,15823.2,26176.8,33041.7,15181.9,41369.9,22027.8,9641.8,22304.0,78678.6,18833.6,23886.6,36707.2,0.0,259655.8,
136,0.311,11379.3,12832.3,13535.5,13564.6,13718.2,13163.2,12999.4,11653.3,10237.2,11142.9,18149.8,37205.4,11385.7,12058.5,14808.6,61212.7,20660.2,11933.9,12704.0,0.0,268878.5,
137,0.304,14378.2,21083.4,26878.8,23989.7,22264.8,23176.5,22914.7,17221.6,25583.9,37435.3,8909.6,21718.7,30339.7,10836.6,16253.8,13060.7,29404.6,24681.5,30785.7,0.0,201097.7,
138,0.298,9806.0,10888.9,18496.2,14036.8,12021.0,16769.7,17949.1,11113.1,19906.5,19432.9,20024.6,32545.9,19823.3,11546.6,19461.0,39085.6,25218.5,18654.8,17928.2,0.0,209476.4,
139,0.346,22837.0,24662.6,27809.4,27069.0,21077.8,24121.5,24297.9,19256.7,21544.1,28163.8,27632.7,68551.5,34736.1,26127.9,32565.0,55079.9,34639.8,26584.0,30390.4,0.0,177325.3,
140,0.312,9630.0,11579.2,15342.5,12014.5,14543.2,15898.8,16215.2,14795.8,14866.8,14091.7,11318.7,21744.2,16344.6,9257.6,14685.3,24042.1,16398.5,16048.1,14576.5,0.0,213178.6,
141,0.316,7691.1,6949.7,9107.0,13886.9,10602.8,11989.3,12326.4,6670.2,14796.9,21112.4,9156.2,24084.3,18377.8,5477.5,11368.0,62776.7,17232.8,15736.3,19065.8,0.0,205662.1,
142,0.358,7456.3,10264.3,12018.4,9276.8,11419.5,15410.5,14353.4,12289.3,18969.3,7960.1,8282.7,51528.0,13539.9,7262.6,22198.6,39135.0,14081.0,12721.7,7269.8,0.0,264052.7,
143,0.326,11400.0,17374.8,23022.5,21935.4,17922.3,20725.3,21494.6,11232.3,19690.8,30518.9,11393.0,16175.3,22674.4,11206.6,11795.1,36364.3,31269.2,22621.4,25536.6,0.0,240907.3,
144,0.298,18512.5,25300.5,31941.4,26672.9,29449.6,35553.6,32296.5,22561.6,31448.0,35311.7,48841.9,121592.4,55682.2,28373.3,55321.0,157755.4,102431.7,29327.2,29010.4,0.0,216258.4,
145,0.323,17282.2,26315.1,28169.1,26180.8,25680.6,32929.1,32013.2,18598.9,30954.8,21089.7,33318.2,96389.1,29284.7,15336.1,44544.4,142303.9,90037.7,23576.7,16530.9,0.0,258350.3,
146,0.346,10228.0,14191.8,15610.7,20414.6,15905.4,20154.8,19674.7,18930.6,29950.5,51596.8,29406.2,138307.1,73057.4,13972.8,44669.2,147010.9,223994.9,26808.0,22902.2,0.0,221384.1,
147,0.545,32084.5,32586.3,29305.8,32759.0,39974.7,38650.1,38948.6,44337.4,54537.6,36460.0,35492.4,169470.9,58655.8,31774.6,72715.8,118394.4,76767.2,44486.9,33852.7,0.0,204077.0,
148,0.324,10675.1,17489.4,19844.7,18455.3,19969.7,21383.6,22013.7,18570.7,26658.3,33975.7,15096.3,68477.7,36236.5,13467.6,26236.5,45474.6,42791.9,26320.2,30229.4,0.0,341729.5,
149,0.335,11663.2,13270.6,17405.5,16697.4,15294.0,17364.4,16455.1,11440.7,16863.9,20056.2,16043.9,72507.7,28306.8,10377.3,17674.5,78714.1,61745.3,15072.2,17155.4,0.0,326580.1,
150,0.395,13966.5,16948.4,25361.5,27274.7,17780.7,24877.0,27917.8,21485.5,32147.1,29151.6,28935.9,81893.1,34567.3,20852.7,39826.5,82421.0,56398.3,26779.8,29191.4,0.0,443822.6,
151,0.487,6502.8,8899.8,9695.5,11213.0,8823.1,10876.1,10980.7,7499.4,14889.7,24401.7,11801.0,52520.4,25816.0,5494.7,20404.2,60821.9,59554.7,14278.7,18607.7,0.0,404232.6,
152,0.236,11361.2,13614.2,18040.0,18437.3,16248.2,17672.8,18284.5,14303.3,21594.9,14264.9,20438.6,56550.2,19577.1,13897.6,19567.5,41623.2,26539.2,18083.7,19187.2,0.0,454123.5,
153,0.275,13096.5,14480.9,17217.7,14643.2,17024.2,21126.5,19490.4,15975.8,29747.0,12942.5,28141.5,87396.0,27963.8,12632.7,26813.0,76907.9,52983.6,19436.3,17804.7,0.0,465135.8,
154,0.307,5882.3,9272.4,11807.1,12660.0,8397.6,11028.0,12835.8,10119.7,14699.8,23782.2,31158.2,74320.4,28338.4,14006.6,33791.2,101570.0,82715.8,13386.8,15461.4,0.0,398496.5,
155,0.258,27569.6,26069.5,29920.5,26499.8,27191.4,28702.8,30954.8,22843.3,36561.6,34797.5,23070.1,196246.2,82733.2,21745.6,53053.1,119234.5,138281.0,36713.5,28189.4,0.0,407119.8,
156,0.314,26740.0,35593.4,46397.3,45444.5,47330.6,59502.2,62589.1,37518.5,80696.7,35876.9,16750.6,198014.8,69702.1,15008.5,52252.6,117462.9,99154.2,61618.3,35230.5,0.0,446299.9,
157,0.266,12210.2,12664.9,16361.0,17277.2,15610.3,18548.8,19328.3,18392.4,35633.4,30073.3,19457.5,203762.0,69719.8,12338.4,50597.6,123808.3,121960.5,27811.0,23789.3,0.0,557485.0,
158,0.323,21350.0,25382.7,37720.9,34559.2,30943.6,38507.1,44445.8,28278.6,57489.7,62646.3,11000.6,107628.2,86705.4,17048.6,34552.3,28749.6,74006.8,58105.9,52943.2,0.0,442997.9,
159,0.287,15916.6,19190.4,21574.1,21443.0,22061.7,27755.5,25136.4,18509.6,34669.3,26787.1,14967.9,48624.8,27530.5,10120.6,21183.7,66985.2,18282.7,30617.8,28405.2,0.0,541031.5,
160,0.28,7582.1,10059.7,10063.0,13282.5,10110.7,12574.1,13014.2,8679.2,12907.6,28002.1,6955.3,51257.6,30806.0,6606.4,8063.8,25758.3,76259.8,14341.1,21022.1,0.0,636539.5,
161,0.408,22011.9,25155.5,27524.7,29649.5,29289.8,29745.2,31845.7,22649.9,33202.3,39000.6,12942.9,56966.5,46571.3,17789.5,20977.8,18755.7,46552.7,37102.9,37421.9,0.0,519356.4,
162,0.437,13739.3,15640.8,17041.8,14498.9,16353.1,16516.8,15927.7,19891.1,18111.9,20484.6,28971.0,23073.6,18975.3,22697.2,22189.0,27384.4,22677.7,14373.0,18991.8,0.0,691407.5,
163,0.348,20125.5,25974.4,23658.2,24830.2,23265.8,25746.5,24202.4,16456.8,19819.7,25893.0,19892.3,57037.8,31912.6,15387.9,20561.3,53538.3,83753.8,23151.3,25891.4,0.0,766667.6,
164,0.413,7797.0,9846.6,13508.0,18635.0,14777.0,17450.7,17285.8,13534.2,28864.8,46805.9,22043.6,179862.8,72506.4,7324.2,34689.3,111342.7,210431.6,23455.8,26479.3,0.0,656413.6,
165,0.303,10396.2,15038.5,20405.1,12924.9,16209.4,19172.4,20249.4,17072.5,24586.3,29532.6,15235.3,64863.8,34791.3,12964.0,27374.3,40188.5,42330.6,21057.5,24346.0,0.0,633637.2,
166,0.292,12763.2,19176.0,28339.4,27641.4,23825.7,28464.1,31907.0,19574.0,35655.3,25958.1,24678.5,168069.7,56451.5,13599.2,47077.3,122494.5,108765.2,29725.2,24538.6,0.0,675595.2,
167,0.28,10484.9,14129.4,18465.1,21215.0,15639.7,19873.2,23264.7,13709.4,27441.4,18506.6,7577.8,58358.6,26171.5,7337.9,21154.4,25406.7,29865.7,22769.8,20730.7,0.0,750993.2,
168,0.602,11594.5,12560.3,14845.8,15267.6,10925.9,12659.2,12577.4,11094.4,12440.3,18005.7,19559.0,19005.9,17166.6,16044.8,14762.1,12244.9,16585.2,13306.2,22515.2,0.0,625834.3,
169,0.268,4091.3,7056.2,7727.9,8882.9,9102.1,9239.1,9140.8,7269.2,12441.7,19782.2,8013.7,60948.8,28013.9,4883.9,15604.6,26698.7,21828.7,12061.5,16302.4,0.0,641738.1,
170,0.391,17747.7,22029.4,22459.6,19397.7,20939.3,20831.3,20411.5,14329.6,17858.2,27144.8,11405.0,35648.3,30489.2,11740.9,16037.6,15622.7,28989.1,23063.1,25849.9,0.0,699165.6,
171,0.561,20202.1,18217.8,16641.3,17033.6,17944.2,18467.6,17218.7,16090.4,17534.3,24676.9,20510.3,23369.6,24258.0,19801.3,18467.3,22507.6,28042.0,19540.5,23309.4,0.0,576739.3,
172,0.362,11909.1,14694.4,13783.8,12792.2,15599.5,15493.9,15151.6,17196.9,18530.7,20594.8,12008.3,13773.6,22169.4,12883.8,12206.2,11042.7,19507.3,17050.2,18755.6,0.0,698709.9,
173,0.399,24742.6,24959.7,24864.9,21813.0,25621.4,28766.0,25180.3,30554.7,30851.1,18032.9,22359.0,34560.6,23337.6,24137.9,33201.0,25939.3,21636.7,22083.1,18551.7,0.0,675792.9,
174,0.291,10271.4,12885.6,16761.5,15953.2,14461.2,17314.7,18228.9,11268.8,16469.4,13859.5,9761.6,26264.3,14634.7,7600.3,18753.0,20766.7,12590.9,16554.5,14938.2,0.0,637046.1,
175,0.304,5086.6,7337.2,11731.3,13155.0,7067.0,9105.5,11003.8,6779.3,7911.7,14115.8,7325.5,8378.7,11169.3,7476.2,7174.6,9627.9,8983.6,10303.7,17666.6,0.0,611908.0,
176,2.229,22223.9,103696.9,84586.7,24401.9,23295.5,25590.8,23672.0,13572.0,16290.8,8395.1,10220.1,17965.1,14104.0,11705.1,12972.0,15966.5,12484.6,15796.4,11503.1,0.0,700288.1,
177,111.259,50447.7,264159.1,127820.4,152503.1,67899.7,70593.4,64899.2,46650.6,50320.5,30354.3,35129.7,34730.8,33407.7,40374.4,35712.1,23344.7,28963.2,48549.8,36937.5,0.0,652166.6,
178,0.758,13152.0,18932.9,23019.5,19349.5,16245.6,18064.0,20147.3,17770.0,19941.4,12993.7,13109.1,16218.3,13843.3,15176.3,16049.1,12910.0,13797.4,22665.2,17048.1,0.0,478656.6,
179,0.434,14643.9,19770.7,28413.5,23638.1,21259.2,25051.0,27272.6,17519.9,29675.5,34622.4,13680.3,51290.0,35997.7,10979.3,20011.7,57989.8,38499.5,29095.4,33918.6,0.0,506549.1,
180,0.905,11166.2,12911.9,15545.5,15357.1,11415.4,12974.6,14217.0,13121.0,14130.2,15146.6,24765.0,51184.0,20856.5,14332.1,27561.0,51055.5,21149.6,13597.2,17105.2,0.0,476566.3,
181,0.319,10497.1,9086.4,7808.7,11209.5,11165.9,11208.7,10399.7,10913.4,13522.0,21175.5,13356.1,17565.1,14624.4,12365.7,10556.5,13018.4,18255.3,11762.8,21448.2,0.0,453814.7,
182,0.43,10534.5,13456.8,15236.2,14420.6,11815.4,13338.4,14281.7,14834.8,15809.0,18396.3,19891.9,19406.7,19762.4,12843.0,13940.4,19116.7,25463.4,17875.0,15113.7,0.0,581620.0,
183,0.251,9379.4,14454.4,15756.0,16434.4,15016.0,19869.0,18821.1,12795.6,23695.4,17090.2,7792.4,29989.1,16003.8,10021.5,14686.2,17146.8,34778.4,18495.1,16361.4,0.0,562500.5,
184,0.305,4029.4,5566.8,7184.8,8115.6,6783.4,7645.0,8185.9,6892.3,7689.0,12708.7,8872.9,11731.8,9383.4,7490.2,11465.6,11595.3,20927.9,8615.4,13119.8,0.0,505869.7,
185,0.444,9766.8,16302.5,23744.6,24711.2,18119.8,22382.0,26132.2,12830.5,23143.9,22677.2,11943.2,66198.1,26984.7,9594.2,21742.3,50774.3,34901.5,24722.1,24091.1,0.0,501266.0,
186,0.455,6451.0,8029.3,10379.7,13342.5,8400.6,10512.2,10594.5,8339.2,12943.3,14878.6,5763.5,29548.2,17325.5,6365.4,11534.6,18293.2,20802.6,11761.8,12977.4,0.0,398070.0,
187,0.446,12712.2,19048.3,23546.5,14617.3,17653.8,21103.7,19123.2,19573.4,20492.2,9487.0,12986.0,29046.4,10223.5,11275.0,15914.0,36662.2,28019.7,12479.6,12802.0,0.0,455249.5,
188,0.368,8622.0,12453.6,10755.7,13771.3,10842.3,13517.4,13692.1,10987.0,14298.2,20494.3,10631.5,49791.0,29417.8,8299.9,16064.5,44204.5,52721.1,17083.6,16582.8,0.0,562718.3,
189,0.274,6168.0,7028.0,8278.4,10608.1,8312.3,8781.4,9689.9,8811.2,11765.3,14409.4,10669.0,45408.2,18229.0,7166.9,16002.9,33186.6,28842.3,11850.5,13599.7,0.0,512980.1,
190,0.319,9270.8,11790.9,12150.3,13202.5,12714.6,14087.5,12642.0,9828.8,18079.0,13781.9,14917.8,66699.8,17860.2,9838.2,24658.9,58302.1,26751.3,14510.2,15920.5,0.0,545546.5,
191,0.395,10014.7,13591.5,13524.0,12919.1,13277.2,16329.8,15050.7,17007.6,26254.1,11167.2,16499.2,67911.3,19278.2,12601.3,26030.4,44602.5,21007.4,17889.2,11112.1,0.0,522660.4,
192,0.255,9531.2,14864.3,16227.9,15864.4,15999.1,16956.9,17301.1,14349.8,22912.9,9347.5,10778.9,21929.5,11935.9,13464.2,14997.9,9133.0,6182.3,17144.2,12033.9,0.0,572307.3,
193,0.264,12190.9,16738.6,19767.4,17812.9,19967.4,24694.6,24360.8,12539.9,27656.7,30212.0,22504.9,162199.4,49627.6,8761.9,40231.5,153034.9,156137.7,23382.5,24273.8,0.0,554712.7,
194,0.253,9847.6,11686.2,12900.6,10203.9,9356.6,8464.7,10034.9,9906.1,10670.3,20124.8,21460.9,141307.4,33026.0,11144.0,39765.8,123436.3,88032.6,10470.0,14613.0,0.0,561562.6,
195,0.313,18240.8,22268.2,25705.2,23544.6,25567.4,31009.0,30648.8,21341.6,32626.0,22769.1,21521.8,163922.7,48948.8,14140.6,44014.7,163655.6,112577.6,28645.0,22032.8,0.0,587465.7,
196,0.332,15155.0,16751.3,15292.2,11986.8,14526.5,15486.9,12744.2,16808.7,20946.6,30427.0,21706.6,181019.2,58840.9,14305.4,40452.0,108856.7,119221.5,16767.6,16107.3,0.0,614116.7,
197,0.368,9139.8,12642.6,16335.7,13429.8,13760.3,14442.9,16128.1,11281.7,23924.0,24697.3,10710.6,176107.5,57458.7,7430.3,29279.8,88148.2,116340.5,21037.9,15461.4,0.0,671921.5,
198,0.367,16625.4,20171.1,21737.8,21538.5,19501.4,23172.9,22789.8,17423.4,26802.2,38286.0,10781.4,101066.1,41258.1,12086.4,25267.6,55699.5,51726.4,23715.4,32747.7,0.0,621042.2,
199,0.253,9460.3,13676.2,15387.0,20193.2,17774.6,22437.8,21505.1,21570.8,37188.1,34967.9,19982.0,275284.7,79333.5,11411.7,59964.3,129969.6,131100.0,26741.1,21074.2,0.0,553416.3,
200,0.374,18990.9,19366.9,20588.4,18955.4,20360.3,21253.5,20606.3,26318.5,28898.4,38296.3,35321.0,150847.1,58646.7,20970.4,63136.3,153900.3,153664.9,23897.0,25924.9,0.0,663319.2,
201,0.325,15414.8,18219.6,17553.6,17596.3,19404.8,19597.8,20459.5,17647.3,18759.3,19192.5,11629.5,46389.2,23775.7,13016.1,15091.5,21347.8,38174.7,17209.7,19878.5,0.0,695685.7,
202,0.29,22672.2,26581.1,34981.6,27048.6,28986.7,31310.3,29785.8,19253.3,32124.3,24400.0,16962.1,98149.1,34779.7,16285.4,25121.0,61195.7,49235.2,31034.0,30116.1,0.0,693723.9,
203,0.589,16985.7,20689.9,23153.2,19734.0,20372.4,20315.9,22524.2,21836.4,24805.6,29729.4,11852.0,89976.0,46443.4,17502.1,25145.7,46065.3,59168.0,25934.7,21188.9,0.0,877061.2,
204,0.325,10831.8,12595.1,14988.4,14367.9,12239.7,12330.6,13970.7,10839.6,16567.0,27415.8,19181.6,24568.9,25782.0,11255.2,16265.2,45036.1,44760.5,18885.1,20814.5,0.0,538232.7,
205,0.441,15467.4,19396.9,24010.9,29092.0,22507.4,24247.1,23269.6,30049.7,29705.5,32571.6,20095.4,71120.6,37131.8,16291.1,34573.7,54688.5,44193.0,38273.9,33019.5,0.0,537400.1,
206,0.438,10651.5,13803.4,13877.0,16531.8,15662.5,17300.6,18457.0,21380.8,31007.6,24273.0,20886.3,133128.0,51346.4,10403.8,35951.7,84219.9,86049.9,24721.6,16691.7,0.0,582865.3,
207,0.289,16535.6,16114.4,16094.1,17265.0,22158.9,21313.7,19557.8,25270.0,39362.3,26665.7,37415.7,128660.5,44243.0,18967.5,52590.6,110283.6,74943.0,21904.5,17322.8,0.0,497039.8,
208,0.352,10579.2,18731.8,20439.6,16375.1,17637.9,19570.2,17445.0,15207.1,21197.1,24151.6,11832.5,81573.1,41701.4,11530.3,18298.1,37714.1,65805.4,19821.2,19449.3,0.0,561941.4,
209,0.319,5748.9,10376.5,13393.2,9186.3,9617.5,12540.2,12229.9,7575.1,14361.4,6475.2,25969.9,91960.8,17176.5,7266.1,43879.7,124286.2,37266.0,8460.0,7003.9,0.0,482566.1,
210,0.25,7894.8,10667.9,11711.7,9624.9,10014.1,11206.7,11558.1,10905.3,17173.7,14091.2,14110.2,169133.5,43543.9,8213.7,36772.1,108853.8,104294.5,11671.3,8523.2,0.0,605979.6,
211,0.249,10794.3,11232.3,13434.5,16027.9,12586.3,15109.1,17380.6,11753.4,22704.9,34201.5,15473.7,93576.7,45906.8,10381.8,25292.7,49584.0,42065.2,23812.4,25813.7,0.0,611676.5,
212,0.365,17860.0,24959.3,32323.6,26208.2,27392.7,30061.0,31125.3,16016.4,32022.4,41387.2,20309.6,64819.7,41887.8,13004.8,22397.2,97339.1,39241.1,30627.4,33911.0,0.0,619524.5,
213,0.416,15169.7,18671.9,24811.0,24980.9,19911.4,24842.6,26836.1,22256.1,32868.1,29088.5,23581.2,97460.5,40643.9,14097.9,44869.4,108483.6,67841.3,30217.7,21326.7,0.0,639685.4,
214,0.233,8651.9,13384.2,14507.2,11583.3,10543.9,13144.7,11855.8,7578.1,13576.3,27858.1,10640.1,116078.1,42000.1,4829.8,20735.9,78586.5,103041.0,15293.9,18235.5,0.0,639038.4,
215,0.317,12262.3,17837.3,25793.5,24476.8,15416.5,20079.1,22338.0,17622.2,24539.8,45890.1,18509.5,175585.8,74113.2,10325.6,47135.6,95179.9,163667.3,28381.0,32101.6,0.0,607869.7,
216,0.28,15207.4,15578.8,20158.6,20823.7,14634.1,17895.9,21022.2,18897.6,32565.7,20384.8,31425.5,143395.3,47126.4,16308.5,45511.6,103734.8,74180.9,24573.6,17883.6,0.0,638951.7,
217,0.559,22726.4,25751.6,23934.6,25239.8,23043.5,24645.9,22255.5,18067.0,20149.7,32342.3,21376.7,107138.2,48263.3,19354.5,24864.7,57833.9,94916.4,23960.9,31611.5,0.0,700818.0,
218,0.265,8270.4,11587.9,11937.6,7335.3,12408.6,13355.5,11496.3,8798.1,14682.8,39816.2,18011.2,157823.1,64119.7,9640.3,25407.7,94187.3,178035.5,11335.4,11634.3,0.0,670383.6,
219,0.305,18566.4,24042.2,28544.7,20121.8,20125.0,22177.0,22072.4,16938.5,17410.0,53061.2,38468.2,271606.1,94989.4,18709.4,66681.7,221349.8,282836.4,20054.9,23139.1,0.0,703643.9,
220,0.377,25163.7,37476.8,43020.6,42495.0,35247.5,41631.0,40636.7,36510.6,44396.3,63051.3,33063.4,141639.4,64192.3,24334.9,58962.8,112305.9,74123.8,46207.3,62580.1,0.0,705279.0,
221,0.293,8930.7,21315.4,26912.6,23147.9,15642.8,19540.8,23284.1,13255.0,20639.4,22317.8,30140.9,88406.2,25184.3,8393.0,41319.5,167690.6,38748.7,22680.6,23553.2,0.0,704531.6,
222,0.398,23535.6,30010.3,33127.2,28136.8,29518.1,33252.8,33171.4,28037.2,40727.3,31685.4,24115.8,112802.6,44150.6,24316.4,34739.0,85950.7,78886.7,33832.4,31493.7,0.0,920019.0,
223,0.248,10757.3,12938.0,13432.0,9774.1,12258.2,13506.8,11981.5,14875.1,16021.1,14797.5,22322.9,108448.8,31551.3,12949.0,34763.9,92489.8,42174.3,12422.7,11357.6,0.0,681082.5,
224,0.358,16341.3,17746.6,15483.6,12890.3,16231.5,17202.5,15425.9,10330.7,13251.1,14916.0,9642.4,39168.6,9144.8,8351.7,9334.9,46712.4,12991.8,11861.1,17512.2,0.0,712346.0,
225,0.382,25152.0,30368.9,35941.3,35336.5,30428.4,37030.6,36877.4,23353.2,38900.1,38287.1,17218.9,75544.8,50419.9,16906.0,24360.9,37426.9,59569.4,36753.3,37044.4,0.0,871791.2,
226,0.27,11635.6,14748.7,13355.4,9651.7,13314.6,13741.7,13436.6,12272.1,17935.9,17704.2,13739.1,57867.1,24089.3,10447.9,16095.0,35857.9,50503.7,13205.7,12547.5,0.0,737660.9,
227,0.36,30506.3,32519.7,36698.9,42797.2,30586.5,37120.3,37893.4,22649.5,39316.5,49807.2,16209.3,146667.0,53686.0,16038.9,38645.3,122736.3,62479.4,40989.1,51036.5,0.0,916072.6,
228,0.416,12007.3,20963.5,27174.8,24697.6,21947.7,28963.5,29883.4,24787.6,48810.0,39780.6,18489.7,152233.4,61676.2,13100.5,46123.9,104196.7,52953.7,37270.8,31232.6,0.0,894582.6,
229,0.33,11183.7,15681.0,16898.7,16187.7,17742.7,19625.0,15545.2,13151.8,18828.7,19436.0,17252.7,23412.3,19455.9,14500.8,18609.0,19531.6,20644.5,16876.4,17982.7,0.0,915915.0,
230,0.53,17480.2,21093.5,22366.7,26620.3,20418.1,23279.7,23866.8,19986.9,25143.8,31249.0,17424.7,57138.2,27056.2,16177.3,21478.9,37505.9,36398.7,23891.8,28948.8,0.0,908590.2,
231,0.262,15759.6,16401.4,21301.4,28964.6,15261.4,18257.5,22254.6,13888.3,18182.8,57877.3,10862.6,105541.5,61306.3,6970.5,29269.7,85925.5,128157.9,29141.8,40821.5,0.0,984434.1,
232,0.232,11160.3,11893.3,13131.8,16924.6,15001.6,17346.9,18577.9,13430.7,20545.8,31969.0,12627.4,78849.5,49507.2,9653.1,20151.9,51919.0,84852.4,22574.2,20948.9,0.0,972806.7,
233,0.348,18171.0,17239.3,22865.4,24192.1,19684.5,24262.1,26800.3,15667.0,17244.1,22841.7,26595.0,169207.6,48624.1,13348.2,37903.0,157060.8,205528.8,19665.0,17519.3,0.0,996372.9,
234,0.318,17932.1,23588.1,24551.1,15828.3,22884.2,25362.7,22856.3,13652.2,22290.2,26495.4,11938.3,138895.8,54872.1,10316.5,24205.3,97092.5,185843.4,16784.1,10859.6,0.0,967156.8,
235,0.23,5701.6,8758.7,11203.9,10222.6,8000.4,10353.4,10331.6,4179.7,10482.1,37138.3,14436.6,190124.5,71033.8,5461.1,29260.8,119076.9,205937.1,10772.0,12374.3,0.0,980137.7,
236,0.227,7937.7,9129.4,14297.5,16817.2,12953.2,18157.0,18743.7,11638.9,21576.7,25535.5,9156.5,84625.1,40316.6,6065.9,15330.9,36224.1,102420.0,19529.5,18637.3,0.0,912631.9,
237,0.907,18193.8,24282.7,29652.8,26444.6,22825.3,22001.0,25122.5,17033.8,20678.3,23013.2,19043.2,37530.6,25004.6,17753.4,19708.0,75387.7,34529.2,25415.4,25187.9,0.0,1068858.4,
238,0.81,19346.4,24580.0,27031.1,27035.7,20759.0,22227.3,24424.9,21345.9,25252.1,28304.0,21360.3,48958.0,33579.9,17715.0,26078.3,51194.6,33544.0,25961.2,24584.5,0.0,1053848.7,
239,0.407,12586.0,16851.0,21160.7,27049.3,19159.7,21685.8,26576.2,19935.5,21934.8,41846.4,13220.2,25120.7,34888.9,12671.4,13982.5,26480.5,46531.6,26202.8,35332.5,0.0,958127.8,
240,0.354,13500.6,17653.2,20342.3,19097.1,25194.8,25087.2,22411.3,24504.6,26921.6,14511.3,23089.8,114787.5,26532.8,9385.5,41545.9,132319.3,52931.3,18121.3,16579.5,0.0,769202.4,
241,0.291,8452.7,15011.0,21424.9,13296.4,16670.5,21811.9,22186.2,10126.6,27375.3,39022.5,6227.2,112831.5,61493.6,6422.4,17060.4,52123.7,161331.4,21993.9,18670.3,0.0,828848.7,
242,0.256,14760.5,25031.8,25720.1,18309.9,20811.0,26222.5,21421.7,13443.6,19425.5,15906.2,4879.4,120952.8,35489.2,6825.1,13263.0,85953.1,153663.3,16868.8,15612.5,0.0,755495.2,
243,0.341,28670.7,30846.4,27482.9,25674.3,29345.2,31353.8,31197.5,26989.0,38176.5,59522.3,31687.3,289082.3,107577.7,22646.2,58722.0,203275.8,265213.8,33940.9,28787.7,0.0,768982.0,
244,0.323,13269.0,19540.5,32129.3,28598.8,20631.4,27468.6,33464.0,18387.8,36335.6,20895.6,25936.8,175682.1,43303.4,13141.9,49898.8,161590.7,86730.3,34128.1,33455.8,0.0,610499.6,
245,0.267,12560.4,17904.6,21037.9,18956.9,19959.5,22779.5,23761.0,21260.8,30441.9,35883.6,34282.8,260212.4,82436.6,13089.4,70307.6,208337.7,206501.8,25221.8,19270.6,0.0,643193.6,
246,0.232,10019.1,13429.0,18247.8,13979.3,13995.8,17522.8,17839.5,16249.4,22287.3,24986.1,19013.6,139394.9,45860.3,13588.5,37870.3,80775.3,91597.2,20932.6,17816.7,0.0,716041.7,
247,0.222,8412.1,10310.6,11219.6,13717.6,10205.2,13124.0,14770.0,8229.5,18367.7,26058.0,10338.3,60781.7,40812.3,5165.5,14736.9,42458.7,45358.9,20236.8,19853.4,0.0,677519.8,
248,0.318,16526.9,18135.1,18128.5,20966.7,19456.2,21099.2,21977.9,21354.3,23600.4,39796.6,43070.0,194901.4,71243.0,18305.2,69906.1,200468.9,203977.4,22322.4,19962.1,0.0,647439.1,
249,0.219,5901.1,8507.4,9734.6,11740.6,9912.9,12118.0,12526.7,14144.4,30206.4,41188.1,25124.2,216558.6,77252.8,8985.3,47797.3,132884.3,142565.9,21994.2,22648.0,0.0,729748.5,
250,0.285,16825.2,22307.7,29675.2,36683.7,30457.9,35201.0,39786.5,28846.8,49806.1,51336.7,24477.5,123503.7,63532.3,19947.8,43030.0,71096.3,58352.4,43059.5,53311.0,0.0,801387.2,
251,0.239,11597.5,15141.7,21749.5,24093.5,16416.9,21301.4,23314.2,12929.2,24691.9,27621.0,17805.9,64096.1,34963.5,9507.2,33726.6,101002.4,67424.4,26292.3,21402.7,0.0,766341.6,
252,0.259,14388.1,18677.5,27747.7,28725.5,22435.1,26775.6,27971.0,27593.5,40652.7,39185.9,29084.2,151494.1,44603.0,17457.2,65449.5,172297.8,70890.6,28072.7,42093.7,0.0,700505.4,
253,0.265,13614.6,10230.2,11153.0,15117.4,14336.7,14933.6,13308.1,16270.3,21470.6,21577.6,25009.7,151425.9,40089.9,15896.8,45878.7,109597.7,70670.4,18672.6,16087.4,0.0,816776.8,
254,0.226,9620.1,14549.6,19317.5,17752.2,11570.3,15341.5,18665.7,9973.0,12069.6,14249.2,18308.8,160589.4,34950.5,10523.3,30370.1,125159.7,184770.5,11194.8,12244.0,0.0,686577.7,
255,0.197,5332.8,7691.0,8238.5,6110.9,9205.8,11798.3,10092.0,9766.7,12501.8,19534.6,15274.7,81230.4,38818.6,8589.7,23850.7,93758.3,157905.2,8384.3,9980.3,0.0,947443.3,
256,0.248,20002.3,32377.4,33376.5,32113.2,26249.3,28326.6,30616.2,31196.8,41108.6,78548.9,43432.6,247658.5,112315.6,20750.1,87563.1,221728.9,253649.8,36551.5,50705.7,0.0,839731.5,
257,0.245,8502.5,11389.1,16490.9,16250.4,10466.2,13559.1,13371.0,8875.7,11459.8,17743.6,12959.9,62604.1,20449.6,10349.5,21610.6,60658.8,31413.1,12155.1,16828.6,0.0,810746.2,
258,0.22,5947.5,9957.9,15369.0,17821.2,10236.0,14461.8,15601.5,5841.4,12091.8,20661.8,12355.0,51498.4,22222.5,3598.9,17339.7,74569.2,38062.3,13598.5,15724.5,0.0,851834.7,
259,0.193,9641.5,9645.1,11496.6,16436.6,11013.7,12969.7,13521.0,12764.2,15713.7,30334.3,22560.8,84012.1,43958.7,13179.8,31821.6,64851.6,76082.4,18128.1,22909.0,0.0,702451.9,
260,0.211,13915.1,21740.8,22382.3,18334.8,18068.7,20676.4,23634.3,19640.3,30522.9,37089.4,14680.5,194736.5,82236.8,11525.0,35347.3,75535.2,226327.6,25569.6,19893.0,0.0,803718.5,
261,0.266,12459.0,15019.6,20491.5,18772.4,17446.8,19948.7,20654.8,14308.2,19824.6,28390.7,24634.0,158612.8,55042.1,8577.9,42691.9,147007.8,184218.1,16060.8,17597.0,0.0,695093.8,
262,0.222,11698.9,17204.4,17679.1,17746.5,13415.2,15330.5,17078.6,11967.1,15467.6,19028.6,13612.5,42393.1,22250.1,12508.6,17801.0,31334.7,53130.9,16469.9,18491.8,0.0,814426.5,
263,0.289,14460.9,19650.8,22517.8,21756.7,15448.6,18747.7,21579.2,8966.5,12865.9,18583.3,8706.1,86884.4,20450.2,8256.4,22138.9,93081.8,42625.5,16669.3,21210.4,0.0,803096.4,
264,29.062,13528.9,16090.9,11624.3,7201.9,11651.2,9793.6,8352.1,13463.6,11183.4,25509.9,17858.8,99478.9,34955.1,15026.5,31270.8,95571.3,116557.7,6155.0,10511.5,0.0,759841.9,
265,0.429,11628.8,19107.8,18703.0,16927.5,16253.3,18069.8,16208.2,13532.3,13928.3,20301.2,12658.1,18330.8,13475.6,9417.1,15815.9,34357.9,33046.8,14488.3,22739.8,0.0,747231.4,
266,0.33,10451.9,10737.5,11243.1,13404.8,10432.3,12792.0,12505.9,9287.2,14790.5,16666.1,10076.7,15888.8,16970.9,7905.9,13687.4,13383.2,14340.0,15087.4,16965.5,0.0,773663.5,
267,0.546,9621.5,13071.3,19233.0,20557.4,15457.9,22255.0,26621.7,10458.9,26609.1,8708.6,6891.6,13024.8,14401.0,7422.0,9034.9,15594.5,7331.1,22206.5,12811.2,0.0,704948.6,
268,0.216,7929.3,11096.9,13594.8,18143.7,11189.3,13461.1,14224.7,5770.7,9977.6,29749.1,16297.9,57763.7,25051.5,7166.0,18010.4,111407.7,103937.0,13149.0,23692.7,0.0,681619.0,
269,0.271,11962.8,14397.5,14639.7,13692.5,12820.4,14855.4,14324.6,10131.0,17798.5,33322.1,10076.5,77865.6,44688.5,8882.9,17725.1,64462.9,92007.5,17622.9,21516.8,0.0,822875.7,
270,0.347,8623.6,10457.9,10783.9,9326.8,12629.4,12783.2,11414.1,13154.0,20089.7,27580.1,15694.0,197823.1,68902.5,9753.8,42611.7,175552.5,257194.9,11029.3,10063.6,0.0,920088.4,
271,0.374,17982.1,25216.7,28501.0,27101.9,27336.4,32655.6,31206.9,19871.0,26777.6,54962.3,21597.7,96845.2,61834.9,17760.6,28360.3,103168.2,186475.9,29314.3,38388.6,0.0,889541.3,
272,0.466,16311.9,25765.5,32501.1,22877.2,25453.2,32447.2,28889.7,13025.1,23752.6,14030.0,10721.3,100768.4,28203.0,8936.8,21359.9,88680.8,104770.4,25262.0,18696.0,0.0,1004091.8,
273,0.473,16178.8,21892.7,29506.7,27007.2,25090.2,29869.3,29897.8,17694.8,28191.1,34447.0,23454.1,107913.0,39075.8,14679.9,34852.1,92558.7,111906.9,27442.0,32280.1,0.0,956642.0,
274,0.301,8408.3,13118.7,16209.5,16287.3,14444.1,17868.2,15366.9,13101.4,17020.6,11398.8,14861.8,86992.1,25922.3,10281.0,27250.6,79113.3,95216.1,13300.0,15235.3,0.0,1034867.6,
275,0.291,10579.5,18807.8,29863.2,28496.6,22038.4,30664.1,33171.6,16565.5,29776.9,17731.2,19272.7,60134.8,30345.8,12476.1,21663.9,87390.8,88185.0,30146.3,24904.9,0.0,1013396.3,
276,0.796,24595.2,23192.2,18479.0,19862.5,24509.4,25328.4,20937.1,18615.9,22899.0,39993.5,13700.5,102333.3,65789.2,14971.3,26607.5,66399.2,118521.8,21583.6,26572.2,0.0,1086659.7,
277,0.234,10638.2,11201.2,13452.6,16630.6,12570.2,14747.6,15008.1,18314.1,19980.9,44240.6,38666.0,133918.1,72442.6,17836.0,52130.2,128523.6,213101.5,20706.6,26384.8,0.0,1249206.4,
278,0.213,17690.2,19082.8,15117.9,17134.6,18972.0,17915.2,16493.6,14845.3,19620.5,40677.6,14169.0,95869.5,49095.2,13623.8,18119.9,48173.4,132971.5,19913.6,27582.0,0.0,1210158.4,
279,0.657,27223.2,33320.7,34550.6,32094.9,29090.4,31115.5,32653.7,22640.5,27459.1,28016.8,27925.7,93152.1,34822.7,22953.8,28264.4,118278.0,91725.3,28551.5,31921.9,0.0,1228813.8,wide and peaceful
280,92.894,23586.1,59535.5,65114.7,46405.7,33184.1,40337.9,44910.3,23986.9,45654.0,32436.8,14042.3,55362.6,38887.7,17494.6,20139.3,63282.1,76424.2,39676.8,39528.9,0.0,1076491.1,
281,1.155,7072.3,16509.8,25534.5,20037.0,10053.4,13861.6,16167.2,6342.4,12889.8,15629.1,9555.9,6743.2,8583.5,8981.7,7538.5,6032.7,6847.1,11610.0,21184.1,0.0,987290.7,
282,0.446,21431.5,19650.2,17739.1,19476.1,15345.5,15640.5,16573.0,10961.6,16197.6,18648.0,17910.9,40547.3,21941.6,11654.3,17561.4,68674.6,54071.1,16821.6,18924.3,0.0,1021413.6,
283,0.336,12672.1,23526.2,22694.6,15476.3,18130.2,21376.9,19735.4,9909.3,16500.9,10314.6,11120.4,30987.0,11803.3,6806.4,14639.7,65231.7,30781.0,13897.2,15274.0,0.0,893358.5,
284,0.452,11514.9,15286.8,15803.9,16042.2,15508.1,15152.6,16206.9,14979.9,20758.7,23649.4,19212.7,54738.6,30004.9,12381.8,26918.1,63734.3,42474.8,18057.5,19895.9,0.0,902588.7,
285,0.491,14702.7,15397.2,16496.5,21505.6,17671.9,20276.6,20041.1,15564.1,20725.7,35267.9,21519.8,51462.3,32192.0,11969.8,18028.6,73374.0,63442.3,20284.3,28320.5,0.0,983702.3,
286,0.502,28272.1,28384.4,31866.9,30752.1,34780.1,34538.8,38015.3,35072.0,43893.2,23155.6,43180.0,189047.9,51970.5,24501.8,80410.0,223207.5,97474.0,36374.6,29794.6,0.0,1000442.7,
287,0.488,13638.9,14320.5,20089.0,22968.8,17856.6,20600.4,20444.4,11202.6,19484.4,15350.3,22063.7,64435.5,21451.1,11314.1,23485.5,96455.2,58002.2,18079.4,17896.8,0.0,816329.9,
288,0.303,9550.2,19659.5,17953.7,9536.6,13158.1,14678.8,13378.9,9218.6,11621.1,18592.9,10722.3,103879.1,41844.7,7389.4,23295.3,83935.7,109310.6,12251.5,10873.2,0.0,783676.0,
289,0.735,25195.4,29313.6,27600.3,22195.4,27826.0,28842.7,26661.5,19686.4,21256.3,16416.1,13008.1,41367.8,16519.0,14224.1,13393.4,70080.6,66533.6,18546.2,17522.8,0.0,750524.1,
290,0.443,5797.9,6237.6,6649.9,6844.2,5248.7,4824.3,4881.2,7276.3,10513.1,17671.1,20264.3,120671.2,29981.9,9376.3,41452.3,144430.2,83268.5,8357.5,9928.5,0.0,769095.0,
291,0.247,10845.1,14569.4,22560.5,27077.2,20578.6,26079.4,29663.4,22304.4,40085.9,33425.8,17632.2,158456.4,65015.3,14351.0,38503.1,89406.1,109868.1,35827.3,26877.9,0.0,747501.2,
292,0.238,8207.9,10732.2,7954.4,11243.4,11038.6,13106.6,12069.4,10543.4,14529.0,14410.5,7579.7,16362.9,15772.9,8914.7,12743.2,10508.7,15719.0,12638.7,13767.2,0.0,769703.6,
293,0.261,9789.1,7374.5,8841.6,9761.9,9618.2,10105.1,8851.2,8608.3,10566.8,9661.1,8396.9,20439.3,6915.0,7086.7,10198.7,23347.1,12820.4,8448.7,11329.9,0.0,769240.1,
294,0.267,11226.6,12741.3,14001.7,14778.4,15532.5,16083.4,17432.3,11242.7,18982.3,22104.3,16084.2,29742.3,17609.4,10185.0,16642.7,70436.6,57869.5,16012.0,20210.5,0.0,736478.7,
295,0.258,14401.3,14046.7,13419.1,14304.9,15867.9,16200.5,15309.0,18468.6,26537.1,32277.8,23671.1,51442.7,30214.8,14754.0,31128.0,56468.6,58000.8,18711.2,23536.3,0.0,788734.0,
296,14.959,9570.2,21545.5,23604.8,14471.2,12651.6,16138.8,16871.3,11006.8,13426.6,13562.9,12284.5,16717.5,13526.9,9592.1,11312.8,21441.6,16154.5,15396.6,16847.9,0.0,794282.5,
297,0.492,10461.1,10658.4,10180.7,9481.6,8786.3,8833.5,8869.6,8056.3,7827.5,12765.7,7520.7,32469.2,12601.2,8738.1,14024.9,39339.7,42167.8,8886.3,12029.9,0.0,706540.1,
298,0.35,31825.8,32860.5,33217.5,32705.4,35470.9,38108.3,37553.5,30361.2,33970.4,33477.5,29415.9,49108.8,36978.3,34957.2,35127.2,45167.0,31600.8,36374.5,28781.1,0.0,901478.4,
299,0.264,15009.7,19999.4,34340.1,28805.2,30102.2,34986.8,37983.4,22713.8,40719.6,15946.2,15080.3,84556.2,35919.2,11690.9,21053.7,103300.1,69803.6,35904.7,23847.5,0.0,833010.3,
300,0.199,17982.3,25055.1,25973.7,26859.1,26941.7,29400.9,29948.4,23531.6,42749.7,28472.5,15151.4,189109.4,66671.1,10497.8,38743.2,162566.0,149747.4,28656.6,24106.8,0.0,853868.6,
301,0.306,10967.8,14889.0,21307.8,25509.8,19017.8,25018.9,27474.0,18912.0,35531.8,63028.0,36061.6,263179.4,132723.8,14333.8,71948.7,222747.9,258733.4,36780.3,33100.1,0.0,806400.0,
302,0.274,31820.7,42006.0,40034.0,34419.4,34869.8,41397.8,40536.6,20434.8,35997.5,34046.3,15592.5,130170.1,50264.7,17425.1,26081.0,113989.7,193966.3,34884.5,33660.8,0.0,877610.8,
303,0.301,10600.4,12321.2,19332.1,27875.2,13808.4,17179.6,19253.6,18455.8,21842.6,50665.7,43914.5,178810.5,73754.2,19773.6,69664.9,186642.3,206152.0,23935.0,33704.5,0.0,929679.2,
304,0.501,17614.4,25467.5,30902.9,24695.0,19416.2,24952.2,27823.0,12064.6,17329.6,16617.1,38236.9,156385.9,28525.7,14642.5,50075.2,235041.9,181040.4,16931.8,16813.1,0.0,731219.1,
305,70.123,54216.1,88514.7,87256.0,65878.5,64620.6,73589.4,70978.0,50025.5,66673.9,28840.4,35096.5,75587.6,33086.4,40846.7,41873.6,124885.9,103558.5,54369.1,53355.0,0.0,845635.5,
306,0.561,31799.5,35153.7,46690.5,43912.1,38554.6,41290.6,45019.2,33251.1,38098.8,20501.6,35720.9,50721.0,27507.5,32315.2,32067.7,58262.6,28703.6,37088.4,29949.1,0.0,876776.9,
307,0.376,35303.2,42334.2,43736.6,37686.7,46035.1,49251.6,47544.3,41005.8,53246.5,49487.1,46741.3,134360.8,73424.3,34490.1,54855.0,141528.7,166476.1,42243.0,26329.3,0.0,967241.5,
308,0.287,14805.4,24152.3,23357.1,13548.3,24580.8,26755.6,22741.5,15906.0,22727.1,27613.4,8586.2,36494.6,32195.5,8698.8,11332.8,55988.2,132002.2,15459.4,11687.5,0.0,830051.5,
309,0.231,7400.8,10918.9,18116.8,17037.4,9058.0,11694.5,16482.2,12696.5,15866.8,40182.2,42084.0,31354.4,39924.3,17261.9,36561.5,114955.3,77575.5,16817.9,25086.4,0.0,832385.5,
310,0.512,13337.3,21338.0,18537.9,18459.2,20061.0,22462.1,21742.5,17163.8,29230.3,31640.9,22680.7,27508.9,24874.0,11033.4,23618.8,94189.7,59427.9,24767.5,23862.5,0.0,817172.0,
311,0.354,10805.1,14363.2,14450.9,16224.5,15518.1,18791.8,20219.4,14052.6,23717.2,16061.4,9841.3,36312.8,20891.5,9435.6,17743.4,48828.9,41258.4,20982.1,18969.4,0.0,865347.5,
312,0.319,18184.4,27986.7,33590.9,28889.5,25570.8,31960.4,33560.6,16096.3,30701.6,19338.3,24307.4,68528.9,21655.5,6521.8,26654.4,126602.5,40022.7,26426.9,24788.4,0.0,817594.0,
313,0.279,16440.5,20631.3,23315.1,21225.4,24176.6,26603.3,26413.6,22781.4,30475.9,13227.0,20062.0,72907.8,20345.1,16180.7,37321.5,121360.8,68730.5,22259.7,14424.8,0.0,884605.6,
314,0.364,39481.8,47238.5,38350.2,19601.6,49611.7,48022.8,37924.1,30910.5,44353.1,20374.1,27827.8,67557.2,28152.3,19136.2,22100.4,140561.9,158087.8,26004.0,11216.9,0.0,770209.3,
315,0.284,10391.6,15511.1,19955.9,16936.8,17262.3,20127.8,19591.5,13476.9,25872.7,15448.3,9968.0,37803.8,23464.7,8283.5,13326.7,29404.1,55332.7,17423.2,12088.3,0.0,906905.1,
316,0.361,21489.6,31374.5,27955.4,23015.1,31169.8,35065.7,32783.9,25540.2,35466.9,18103.3,9220.6,29415.1,19138.9,15245.2,14450.0,56107.9,76018.0,28076.0,28268.9,0.0,869023.7,
317,0.269,12160.0,14186.2,17703.3,15418.4,13424.3,16113.2,15810.0,14504.5,15549.6,18457.4,11767.5,25031.2,16812.2,12620.0,13329.3,35347.3,53066.9,15443.6,13669.6,0.0,887178.9,
318,0.368,17809.8,21650.2,25065.4,17969.0,28665.3,30038.4,27053.6,24563.1,31292.3,15084.6,24168.5,73888.2,20946.9,15362.5,32880.4,84722.1,54399.5,19181.4,16315.2,0.0,810870.2,
319,0.295,20455.8,31527.1,37186.6,30481.4,32587.0,40863.0,38987.5,23067.0,44932.5,19257.2,31791.3,76085.6,25312.3,9635.5,31524.3,130492.8,44012.2,30070.5,25279.5,0.0,849230.1,
320,0.289,5951.0,6001.2,11944.7,10602.6,10487.8,14190.2,14183.0,8908.2,16361.9,22714.0,15553.1,41486.4,24692.6,5420.8,18326.2,86399.2,55317.0,14519.8,14853.9,0.0,890014.4,
321,0.343,20918.7,25408.9,28493.5,29766.6,28909.2,29757.8,29347.3,22825.4,34963.3,35735.9,20767.0,70973.4,41306.1,17329.9,24852.0,65998.0,99948.6,29053.3,32331.9,0.0,972883.0,
322,0.37,20766.1,22954.4,23820.9,24875.5,23936.3,26418.5,25305.4,18522.7,29700.1,19653.6,11232.6,39380.5,23424.1,16930.0,12986.7,64698.1,56267.9,28109.1,28741.3,0.0,762723.9,
323,0.348,17639.3,25849.3,28343.2,25305.8,29113.3,36724.0,31919.7,31288.5,44953.4,53068.3,39226.2,203584.6,80328.3,22150.7,78042.2,177171.9,172693.0,32226.6,26778.0,0.0,876318.5,
324,0.381,17630.4,28960.0,32412.8,22922.4,29923.2,31881.8,31003.4,20366.2,34190.8,25037.8,9542.1,92058.5,42063.0,11754.6,29988.8,89666.4,113732.9,24318.5,23876.6,0.0,881385.0,
325,0.268,10962.9,15129.0,17146.0,16477.9,15067.0,16111.4,16488.6,11527.8,17138.7,17609.2,13545.8,31009.4,19565.1,7115.3,15276.4,48824.6,30403.5,16237.7,22575.4,0.0,895245.4,
326,0.288,14539.3,20433.7,26850.8,24963.1,26568.2,31143.4,26844.4,25191.8,36486.8,18930.4,13694.4,30997.4,23404.4,13845.6,20132.9,25694.9,28229.3,23820.4,23095.7,0.0,884446.2,
327,0.267,8692.3,9143.4,13265.7,10321.2,11404.9,13009.5,13007.3,8537.6,18198.7,7573.5,11514.0,58130.2,18249.9,5165.5,14952.0,62389.3,32443.2,12685.7,6055.3,0.0,812932.5,
328,0.294,12315.4,17125.7,16876.7,15320.2,16401.2,15871.5,14452.2,14669.8,19627.9,40036.3,19001.0,94184.5,58258.4,10371.0,26687.0,102152.7,169509.5,18842.7,19158.2,0.0,912404.8,
329,0.321,14870.8,20391.8,20033.2,14830.2,19175.5,22651.1,19261.6,12803.5,19489.1,28062.0,15819.5,108112.5,49823.1,8565.2,20929.3,121616.1,197102.7,14779.8,9932.6,0.0,917100.1,
330,0.271,8261.8,11943.0,14119.6,10548.7,12919.7,17328.1,16275.8,7250.5,15262.7,16155.9,15061.6,82423.1,21273.0,4631.7,25709.7,95401.5,93737.2,10155.3,11171.6,0.0,834072.2,
331,0.325,12141.9,18023.7,20086.7,13304.9,17764.1,20533.5,19161.4,15009.8,23474.7,11100.3,13555.3,115104.1,21418.6,7714.1,38698.3,96176.2,47524.9,13194.3,9961.7,0.0,899400.0,
332,0.462,31670.8,41131.3,50056.3,53691.3,39357.0,45109.1,50241.3,34552.4,50830.9,50712.0,44733.6,153124.2,69397.8,28243.8,58195.1,131170.1,83984.1,57078.8,56418.7,0.0,799319.0,
333,0.23,10067.6,11265.0,17338.3,24211.2,12691.8,17488.6,19846.7,8039.1,18807.4,36568.4,5142.9,63967.3,42061.2,5625.3,11435.9,23758.2,48724.5,24858.0,32235.8,0.0,821660.1,
334,0.446,16202.6,21926.0,26558.5,28963.0,18540.2,26009.7,27839.7,14786.5,24358.8,19027.7,18816.5,20233.5,18956.8,14378.4,16110.8,28804.3,16816.3,24570.0,27188.3,0.0,902317.1,
335,0.291,9861.8,14673.5,18594.6,19658.8,14516.6,18355.6,21418.1,9371.4,21310.4,14973.7,20944.7,65811.2,22825.5,7307.9,27115.1,132944.9,64915.4,21022.9,18186.3,0.0,931528.4,
336,0.271,15953.1,16371.4,15153.1,11113.5,19779.9,20073.3,18461.7,16827.4,26646.6,16899.0,11510.1,71675.3,31234.3,13074.0,22315.5,56560.4,41817.9,18092.5,9630.4,0.0,958163.1,
337,35.187,16333.9,34863.3,25202.0,12214.9,17253.1,16220.9,15483.9,12542.5,16766.7,27780.5,14379.6,98934.6,40043.4,10080.8,24915.8,88976.5,154809.2,13626.0,16103.2,0.0,1029340.4,
338,0.254,6482.7,10079.5,6490.3,9427.6,11567.1,11129.0,7714.0,8308.7,10342.2,24968.0,17195.6,70275.5,29631.8,9462.1,17637.7,77679.7,127927.4,8033.9,10773.8,0.0,1123522.5,
339,0.299,18771.5,24533.8,31002.6,22257.1,22766.1,25976.5,29192.2,18100.6,19042.0,14246.6,20212.0,126250.8,28395.9,16132.6,41094.0,122731.5,61768.7,21124.3,15968.7,0.0,1168103.5,
340,0.497,17425.7,20827.3,23102.5,19946.3,22147.3,22675.3,23192.1,14342.4,20153.2,18217.9,26057.3,126761.1,25555.0,12278.3,39917.0,154929.7,106394.9,17484.9,18069.9,0.0,1172003.2,
341,0.296,24039.0,30887.9,34955.5,31119.6,30465.1,34069.0,33853.0,24431.3,33471.2,40956.3,22065.3,150377.1,88687.2,22050.8,37219.4,79913.8,219781.4,27806.7,26204.3,0.0,1131312.7,
342,0.364,35081.1,37022.3,45787.4,46288.9,40929.6,45760.7,49138.7,34973.8,52013.0,74102.5,35825.6,208989.8,141080.7,28409.6,57307.0,113364.9,249678.5,53649.4,45917.6,0.0,1144891.8,
343,0.369,28956.3,36615.8,39946.2,34945.7,41118.4,48171.2,44572.2,32055.8,41775.2,55344.0,21391.3,197295.6,106704.2,24457.2,41121.2,112553.8,265432.3,33796.0,29341.7,0.0,1317752.5,
344,0.256,21240.8,38470.2,57391.6,45990.2,38726.5,53501.2,52395.6,17839.0,43157.6,30843.9,21608.1,122286.8,47760.5,10309.5,25064.4,142354.0,143191.9,37364.6,28384.9,0.0,1116596.7,
345,0.474,25954.7,25185.8,26575.1,25728.7,29794.8,30718.6,27448.8,30387.1,33103.8,51966.3,25000.2,274308.6,99202.9,24545.0,60579.9,153401.7,244799.6,30408.3,31086.0,0.0,1239837.6,
346,0.273,8981.7,13767.6,17767.3,19844.8,12313.7,19374.2,21121.9,16661.5,25502.8,29125.0,26826.2,132838.0,40485.3,12839.9,57626.5,140582.5,87774.3,21680.3,19280.5,0.0,1043833.9,
347,0.24,12040.9,16448.3,19590.0,22190.5,19830.1,23751.4,23369.7,14308.1,24097.8,30050.2,13105.7,86469.9,32470.3,10576.9,37144.0,76145.0,82664.9,19114.9,21803.9,0.0,1161177.6,
348,0.364,16151.2,23571.0,20951.6,16940.8,23021.4,27378.1,21592.4,14738.0,23016.1,43892.8,24481.1,254297.2,95330.1,10691.4,58025.3,170676.0,268403.7,18507.9,20018.3,0.0,1099225.1,
349,15.485,10600.8,22029.8,22169.5,22876.9,16126.3,20085.5,19149.0,9682.1,15915.6,19680.0,11819.0,75162.4,34531.4,6981.0,18274.9,60731.6,96472.4,17591.1,16925.2,0.0,1153351.0,
350,0.537,9485.9,10568.1,11251.3,9391.5,9023.3,10557.1,9637.7,6337.5,10023.2,20361.7,24987.1,24919.9,15344.9,7649.3,15908.5,71126.8,69437.8,7496.8,14443.7,0.0,1126753.5,
351,0.502,20058.6,23201.6,24503.6,17466.8,20565.0,21165.3,19677.0,20798.0,17777.6,17178.0,37289.3,146739.3,36244.4,17932.9,59432.4,167853.1,114283.6,14502.0,17654.4,0.0,985815.1,
352,0.441,33343.7,38539.6,44567.2,46174.7,40373.4,44451.4,47621.6,35605.3,54300.5,49341.9,23339.0,146580.2,76428.9,28826.5,52539.9,90389.8,127743.6,50187.7,41485.6,0.0,821135.2,
353,0.407,26471.2,28998.4,35594.3,37992.8,34254.5,38489.6,39979.0,35063.4,49942.4,59793.9,33366.6,165439.4,88545.3,27043.9,57899.0,157318.8,203701.7,48086.4,44883.9,0.0,768739.6,
354,0.249,9681.7,10793.4,13065.7,17623.2,7898.0,10106.4,11414.4,15526.2,24368.7,52577.6,23878.4,292921.1,80681.3,11082.9,70422.5,199029.1,205554.8,21525.4,24281.0,0.0,870850.7,
355,0.285,20870.1,23672.2,29298.1,33709.2,23335.4,28904.8,35273.1,18087.8,37379.4,30946.1,34729.1,139260.4,44620.8,13181.4,49898.8,153307.5,49294.1,38372.2,36957.3,0.0,663491.5,
356,0.345,15353.3,16434.6,18601.8,30507.1,23979.8,25078.2,28826.9,35870.5,58530.3,61943.9,27153.0,152264.2,99506.4,26712.5,59828.4,41680.0,79257.2,51203.5,52012.4,0.0,765244.7,
357,0.27,11500.6,16010.1,21924.2,20595.2,19255.4,21693.9,22898.4,19003.3,38494.7,56118.1,12861.5,225597.4,97175.0,8903.2,52286.8,106573.5,104093.7,28252.9,25418.8,0.0,686923.4,
358,0.333,14039.3,18554.4,24723.4,24601.0,22401.6,28421.4,29204.8,20177.3,39006.6,61609.5,20515.8,328790.1,132302.6,13899.2,68766.5,147659.5,235290.8,35626.9,30363.9,0.0,764533.9,
359,0.269,17008.0,28875.0,31801.7,34213.4,22439.6,32261.2,31041.3,10780.6,21084.0,40460.2,23772.4,202261.5,77003.2,10793.0,40719.2,106946.9,151746.1,28984.3,39402.4,0.0,788229.8,
360,0.287,12550.7,13083.6,13067.8,11695.9,14049.7,16649.9,17359.4,14884.5,31856.7,19916.2,12987.3,185734.4,55852.6,9316.6,33795.9,74109.4,62324.5,22765.2,16417.7,0.0,741286.4,
361,0.339,26781.8,26692.2,26750.5,33467.9,30830.3,31957.8,33019.9,38602.5,44530.0,31510.6,50080.5,177479.6,66547.4,30920.2,75963.4,143841.8,70932.7,35579.4,32223.2,0.0,865342.1,
362,0.325,11083.8,12566.6,16233.9,21694.5,11218.3,15624.6,19907.9,10114.9,28057.2,58683.1,11308.9,240953.0,117950.0,7678.7,30992.7,82385.1,154398.1,30674.1,28246.4,0.0,792111.1,
363,0.261,8138.9,12973.4,16064.4,19237.5,10306.7,14332.8,18462.0,11897.6,26256.4,21974.4,19961.8,217446.8,53966.5,8214.6,57074.9,137431.2,77846.1,21977.5,22331.7,0.0,903627.2,
364,0.319,18259.5,28736.2,34153.7,28421.2,29910.6,36323.2,35618.8,23698.0,43138.6,32383.6,24980.3,196794.7,70233.1,13575.9,51658.9,153253.8,161470.1,31653.3,21635.9,0.0,855698.3,
365,0.288,26098.1,28486.2,24202.4,33416.9,29554.5,31692.2,30773.3,25375.5,46983.8,54694.3,30494.4,171121.2,89757.4,19890.7,57310.1,136203.4,123120.5,45357.1,42473.0,0.0,922391.7,
366,0.276,17439.4,17517.3,16843.5,12661.5,17425.8,15746.7,14718.5,23847.5,21286.6,22668.7,36181.7,126883.1,50688.1,25412.1,47229.2,90898.5,92475.1,13726.5,12614.8,0.0,866047.8,
367,0.426,16360.8,19175.7,18477.7,16729.3,20135.5,19451.3,18106.4,27731.4,28945.2,30132.9,39535.5,118573.1,40885.4,25337.6,53891.8,106223.3,81452.1,21302.0,21884.1,0.0,812635.5,
368,0.343,13431.1,22634.3,24391.2,27735.0,20129.7,22952.4,25629.8,21858.8,30618.7,38739.1,22027.3,137065.0,62124.4,16722.0,43780.6,82084.2,87730.9,31014.7,33571.8,0.0,910484.5,
369,25.017,28442.3,56272.9,50663.9,36864.2,46290.3,52336.2,49665.4,25104.9,49338.1,33095.3,19253.4,104807.7,53138.0,15049.1,21725.7,95614.4,132196.8,36981.2,33433.7,0.0,849482.6,
370,0.316,22433.0,23883.1,28838.4,24618.6,25572.2,28369.7,29200.9,19523.0,25449.7,49842.5,20634.5,128837.6,45408.6,17807.9,34334.6,103116.7,97524.1,21669.6,33869.3,0.0,850518.3,
371,0.307,35049.1,34813.4,31449.2,26024.2,31924.9,33978.0,29991.3,28059.4,32145.0,38983.1,30352.0,220301.0,74616.6,25160.5,57130.5,149655.8,187254.1,26127.7,25256.4,0.0,897707.4,
372,0.435,6504.0,7854.0,9322.4,9445.6,7625.4,8109.1,7539.5,11660.3,14199.2,29061.2,25360.9,209032.4,71294.4,11145.2,58291.7,125836.9,126333.4,10610.5,16315.9,0.0,799690.8,
373,38.613,26107.2,36368.8,29659.7,18247.2,27302.2,26235.3,24505.5,28093.4,35859.0,22864.7,26941.7,123843.1,43189.6,22784.7,49888.0,113881.0,77968.3,22939.2,20759.5,0.0,873016.4,
374,0.733,9888.5,10313.5,14222.3,16248.1,11904.6,15120.6,17732.2,12693.4,28001.7,21206.6,15640.4,173231.2,55012.4,6336.0,47086.9,119028.4,105982.7,21606.9,14598.7,0.0,907545.5,
375,0.267,6692.3,10330.4,10103.0,6413.3,8269.0,9685.7,9619.8,7677.9,12150.4,12448.6,13208.9,112643.8,34447.6,6646.8,25619.2,44926.3,73872.5,7113.9,5797.0,0.0,820505.9,
376,0.238,13569.3,17004.8,24072.0,23839.8,23880.0,31715.4,31327.3,15712.3,39867.0,24043.2,9148.5,85894.8,55037.1,8369.5,20781.9,36220.9,120292.8,33792.8,19327.9,0.0,757273.4,
377,0.266,11140.2,14573.8,14147.1,13213.7,14456.0,16678.8,16284.3,11685.4,17336.0,23242.9,17238.8,22210.1,24196.7,9127.0,27473.7,64409.4,102913.8,15288.1,14645.3,0.0,856799.7,
378,0.371,21072.9,25214.5,26541.4,21023.4,22088.1,26301.6,27569.4,17597.7,26526.0,15565.2,32752.8,128837.0,24507.3,16062.6,51882.2,183187.7,81930.8,21137.3,22870.9,0.0,800684.1,
379,0.312,27675.1,34896.8,32161.3,22197.2,31826.6,36001.3,34046.7,20760.5,36917.6,33062.4,22936.0,171681.3,61979.6,14109.4,39592.1,111961.6,135341.4,33254.5,23922.3,0.0,836705.3,
380,0.299,14731.6,22890.2,15153.1,11080.4,16394.7,16953.2,14704.4,10833.9,16157.7,17240.1,23342.3,206029.9,43110.4,7686.6,48929.9,157952.4,136880.8,13375.4,12411.5,0.0,796889.7,
381,0.297,13388.9,23838.1,30702.6,31826.4,24180.9,29097.9,28767.1,22587.6,27405.5,33483.0,32682.8,121907.3,33894.0,20512.8,53052.5,95876.2,32892.8,25044.4,38108.9,0.0,732460.8,
382,0.37,20227.1,23350.4,24916.9,23125.2,22671.9,28130.3,27651.5,13219.9,29406.7,34043.5,10323.8,171615.9,63910.0,6770.7,37300.0,122299.0,173092.3,25904.3,26826.2,0.0,775073.7,
383,2.077,27852.7,43077.5,49291.8,43923.4,43226.5,49457.2,51269.5,35071.0,66409.6,41727.5,16255.8,205489.7,73488.8,17309.7,51512.9,103759.6,80997.5,53478.0,50424.8,0.0,780815.4,
384,247.447,19492.7,314520.9,452130.8,446052.7,28803.8,21354.6,28296.0,11821.0,20908.1,22999.9,19392.0,47223.5,22163.2,11000.8,24586.4,65442.7,27072.4,28159.2,22481.6,0.0,847379.1,FRUITION-CALC
385,60.736,7998.0,35653.1,35310.0,9785.4,8600.4,10400.4,11223.6,5032.4,7001.1,10693.5,3645.4,8291.6,9190.0,4982.6,5106.5,7485.2,14496.6,7004.0,10152.0,0.0,827165.2,
386,0.367,11124.0,11597.4,14539.8,18112.5,10903.8,15096.2,15889.9,10983.7,18545.9,21865.8,9146.7,14748.6,15714.7,7129.0,10596.6,13008.2,16994.8,17218.0,22623.3,0.0,917433.9,
387,0.741,10636.0,16428.9,19485.9,21480.4,14250.0,16459.8,18342.3,11477.4,19954.4,17122.8,14850.5,48204.3,22706.5,12593.0,14211.6,53418.1,82090.3,16743.2,24149.6,0.0,734945.8,
388,1.363,11115.5,10833.4,11946.2,10359.8,8596.1,9548.7,9925.7,7417.5,8073.7,19255.5,9782.6,23565.5,20594.3,9229.0,8803.5,27590.2,53426.4,10464.6,12053.1,0.0,806208.8,
389,1.521,11967.5,12045.1,10902.7,13565.2,13104.3,13557.5,13378.9,13871.1,17003.8,16736.9,13695.6,23736.2,15552.0,12964.3,18217.8,27861.1,21554.6,13756.6,15514.8,0.0,858464.2,
390,0.836,7912.5,10503.1,17033.4,22608.0,11896.2,17961.2,20837.6,6507.8,15483.5,18754.4,5830.1,12775.7,17957.1,4337.9,5417.6,33612.7,27529.6,20351.0,25592.3,0.0,810560.2,
391,0.33,17682.5,20624.2,21019.2,21087.0,25772.0,26172.9,25947.5,21897.4,39994.5,18236.9,15999.7,93072.2,37588.9,13221.7,33580.3,69508.6,38193.5,29507.4,18807.0,0.0,849487.4,
392,0.218,8131.5,14774.9,15579.2,11751.6,13074.4,16601.1,15453.1,9344.2,12290.1,21528.1,18613.8,53542.5,19666.5,7265.9,19043.9,69557.9,55365.3,12361.8,16298.4,0.0,909480.0,
393,0.286,16685.2,18625.7,18645.8,17035.1,21908.9,23803.3,20243.7,19215.2,21648.4,18439.8,16746.6,46883.5,29604.8,15425.7,22781.1,65403.4,50869.3,19253.7,19032.6,0.0,862090.1,
394,0.256,12954.3,14233.0,15780.5,18748.9,17948.2,20469.9,18822.0,17211.2,24153.4,15543.7,20990.8,41698.3,17751.9,12955.9,25502.6,108648.6,62236.3,15601.1,17184.3,0.0,814085.8,
395,0.289,8576.9,9340.6,15105.3,15781.1,12222.0,17655.3,18489.6,12505.2,24563.6,24690.1,9134.5,65422.6,37608.6,6431.4,20779.9,32065.7,72476.4,21986.7,18950.4,0.0,695660.6,
396,0.279,19423.5,19109.4,16113.1,16237.1,16732.5,17528.2,16913.4,14545.3,17269.7,17118.7,21919.8,90923.5,29462.1,15999.0,28464.2,98679.3,90598.6,14770.0,16146.7,0.0,827072.1,
397,0.279,9155.0,14326.2,16104.0,16347.0,15915.8,18883.3,18274.4,12750.2,22395.8,17967.0,17433.7,22740.5,20387.2,10518.4,14172.6,33581.7,26468.0,18354.8,20616.3,0.0,837588.1,
398,0.536,28830.3,32769.0,40296.9,33430.9,34947.3,39351.0,40280.1,25603.6,37186.0,18586.7,18157.7,46918.9,30017.3,20065.7,27174.2,69737.4,55490.2,33734.3,23547.1,0.0,816280.2,
399,0.377,24925.7,25579.7,31038.4,176889.0,24751.0,30127.7,31863.8,29433.8,37916.6,50390.2,35011.6,179618.3,69767.7,26289.8,52171.4,163800.5,206580.7,64830.4,38431.0,0.0,983779.3,
400,41.43,23900.5,76206.0,68912.1,529057.8,35384.2,37395.1,36461.0,31574.9,39872.6,49298.2,21772.5,87599.3,48525.5,19140.3,38274.1,90151.7,94696.7,41723.0,43816.0,0.0,907364.6,fruition
401,0.442,15566.6,12467.8,12751.7,39512.7,13149.6,15622.2,17902.2,13669.0,14470.7,10639.3,18276.9,13108.6,10014.5,12399.9,15613.2,35104.0,10505.1,16845.0,16055.5,0.0,756426.5,
402,0.273,24518.7,30157.7,34853.0,31093.8,36050.7,39074.0,37548.5,32281.3,39774.3,12468.8,9319.6,18463.7,13634.5,20220.7,11541.9,55380.6,37196.4,28932.0,17958.5,0.0,664745.1,
403,0.302,12373.9,12385.8,11336.1,9274.2,12798.8,13084.1,11366.6,12589.8,12976.7,9789.2,11986.5,25987.9,16079.4,10252.5,12769.9,15406.5,30523.9,11639.8,6749.8,0.0,880377.9,
404,0.221,15486.9,19844.8,15336.9,10954.4,17083.7,16499.1,13674.0,16089.5,20423.9,15073.1,7275.7,53292.2,23208.4,9590.1,19991.4,25764.2,42544.7,13385.8,15424.1,0.0,678681.2,
405,0.287,6880.9,14631.2,15769.8,14795.9,12421.8,17717.3,18350.9,6672.8,13503.3,31678.2,35314.7,98494.7,36308.6,11249.6,33178.9,139258.2,206546.0,15346.9,15469.5,0.0,756609.5,
406,0.292,25042.5,30629.9,33053.9,30177.3,33664.6,37630.7,35365.6,23875.9,38960.4,40200.4,20984.3,127022.1,49295.2,16770.3,46782.8,138412.4,76704.2,35338.3,33300.5,0.0,715948.9,
407,0.332,9150.3,13038.4,12795.0,12268.7,16298.2,20338.7,16256.8,14856.3,28363.7,12302.9,13844.3,73841.7,26571.9,13182.3,13757.3,11919.9,16612.0,16689.1,12348.6,0.0,743172.8,
408,0.218,13986.6,16210.5,17188.2,18085.7,16835.0,18454.2,15861.8,17411.7,16146.8,28447.7,28424.2,55394.1,32604.1,15912.3,30289.9,99419.6,130972.6,15761.0,16231.7,0.0,723460.5,
409,0.552,18242.5,24017.5,31967.4,39816.5,28863.7,36647.2,38246.9,21441.1,34807.3,39921.2,23861.5,45937.4,43756.7,16827.3,25810.4,88937.9,65394.0,38739.8,38277.0,0.0,712766.0,
410,0.313,6357.9,8311.7,9906.0,7631.3,11404.6,13641.3,13840.2,11585.5,20641.5,12965.5,25874.4,67789.0,24479.6,12464.0,28885.5,78246.6,43107.9,14372.7,12384.6,0.0,676147.5,
411,0.222,24027.7,19464.6,15649.0,12820.9,25385.5,27395.3,19484.1,24360.3,32077.3,13638.9,25440.4,115876.7,30536.9,17730.0,39460.8,122660.5,73558.6,15144.1,8285.3,0.0,625729.6,
412,0.246,18696.5,20584.2,29481.4,31072.0,26799.4,33245.9,36345.2,20553.2,40961.6,26797.6,14112.4,108105.0,34351.6,11881.9,36344.4,131982.3,68763.4,35829.9,32791.5,0.0,625402.8,
413,0.272,8862.7,10637.4,11785.9,10898.8,9023.4,10798.3,12310.0,7688.6,12958.7,13551.0,25807.7,62153.3,19738.1,6783.4,27185.9,123447.3,84233.9,12314.0,10944.5,0.0,756222.0,
414,0.386,11557.7,11835.8,15359.8,18351.5,13615.7,15843.9,19297.6,20814.6,24021.3,36537.7,49068.5,152042.1,53517.2,20255.7,73524.0,195639.6,98058.6,25699.0,26288.4,0.0,735596.8,
415,4.662,17892.4,31115.2,34410.6,27252.0,32469.4,38976.5,38174.9,22175.2,37777.2,14233.5,22219.2,94589.8,27067.5,12596.5,36298.5,117808.2,75219.5,30202.3,23432.0,0.0,561999.4,
416,0.833,12273.5,15519.3,17552.0,15035.0,15419.3,16840.3,16102.7,12796.1,18426.5,9985.6,22231.6,101825.7,24630.6,13688.9,34757.1,105077.4,79308.1,11730.2,11609.4,0.0,643326.8,
417,0.285,16707.8,19422.0,21171.6,17067.7,20218.0,23435.5,22777.0,13552.9,21785.8,31288.1,17948.1,111238.8,50371.7,10896.2,27220.1,112897.9,164306.9,19862.3,18221.6,0.0,606182.2,
418,0.84,15199.5,20958.6,23084.7,20728.2,31339.7,34163.9,33111.7,22863.2,40640.8,13865.8,8861.2,63563.9,23083.0,15019.6,14490.5,40713.6,51703.1,25286.1,15539.2,0.0,546815.8,
419,0.34,15182.7,17559.0,20136.2,20826.3,18220.5,20603.7,20757.3,23908.3,27403.3,49072.6,45550.3,140652.4,62506.4,19197.7,66095.6,165535.1,121197.6,26734.9,31129.2,0.0,609626.5,
420,0.226,15050.0,16462.3,14614.7,12480.0,17738.1,17340.9,16013.2,13525.0,15476.6,33418.4,12452.6,126238.8,51566.6,10937.7,30449.3,124241.1,137463.0,14431.9,21007.9,0.0,684595.8,afterglow
421,0.236,17649.7,26957.2,34350.6,33105.5,26819.3,31085.5,32999.2,16200.0,32651.2,40991.3,13273.5,101233.2,64418.0,11838.1,18989.8,61868.5,131811.2,35563.8,33476.8,0.0,654764.0,
422,0.401,13566.5,13554.2,10852.4,12734.3,16006.5,16225.5,16779.5,14797.8,22453.2,26292.5,10018.8,50412.6,33365.1,10406.8,17580.1,39265.7,49165.8,19490.6,17829.1,0.0,663763.9,
423,0.841,10190.7,12100.1,14672.0,19098.0,16081.1,19890.3,20124.6,14539.8,29871.2,43035.4,11050.3,121126.8,60593.1,7563.5,27110.7,89259.0,130079.2,28369.9,29017.1,0.0,742833.8,
424,0.24,8775.9,16720.7,25333.6,26916.7,15630.8,23207.0,26262.9,8665.5,16200.5,27702.1,14980.4,61686.7,25482.0,6932.8,16366.5,82156.9,106130.9,21255.1,25295.3,0.0,647338.6,
425,0.419,10524.5,9347.6,11266.6,13958.5,10881.9,10375.6,10007.3,15588.3,14335.8,23514.8,20280.2,44073.9,25476.8,14483.0,30952.2,40224.1,46630.0,14320.2,22534.6,0.0,681338.3,
426,0.364,14570.6,17594.5,20157.3,16693.6,16995.5,18965.6,19351.4,13492.9,20900.3,27702.0,21031.4,91876.5,34486.2,10809.6,31678.7,123503.2,107987.0,15415.4,15624.0,0.0,652566.0,
427,0.402,25555.2,33724.5,40005.8,39672.7,33445.5,38533.7,44808.9,22355.1,38352.5,19358.9,14382.5,68078.0,31434.4,13304.8,29910.5,100249.6,90052.9,37000.2,32779.1,0.0,739851.8,
428,0.3,17544.9,18848.4,16719.9,17260.4,21005.8,22591.1,22710.4,26948.6,25824.1,58665.8,52561.1,159912.6,86795.5,31734.9,63969.0,153548.0,275089.7,27671.9,28963.8,0.0,783946.9,
429,0.722,43994.1,57061.5,61692.7,51170.0,49312.1,52800.7,54076.2,33510.9,44093.7,53803.1,30456.9,84958.8,50325.0,30875.6,40978.1,129088.5,180153.6,41999.8,41494.4,0.0,706471.7,
430,0.284,34080.5,34938.4,48553.8,45940.6,39401.0,45297.9,47791.4,40434.1,47173.2,26061.6,40053.3,90996.3,38246.2,36534.6,54786.0,150081.7,40196.7,37903.0,36845.3,0.0,699895.9,
431,5.929,8441.1,23643.2,30173.5,37097.4,16285.7,20115.8,23054.2,13494.0,21691.0,15299.9,19652.9,84728.0,28212.1,7307.5,30751.2,125448.5,59829.7,41058.7,18865.8,0.0,719763.2,
432,42.999,31970.7,63548.5,40966.7,13570.5,27359.9,28520.8,20073.7,20376.6,19800.5,20499.1,22691.2,56630.9,20177.2,19665.1,25321.2,121592.6,93403.1,19913.2,16231.9,0.0,656149.2,
433,0.584,17728.2,14260.0,11979.4,14169.8,13814.9,12969.9,12235.6,13596.7,13164.2,13559.1,17864.1,15409.8,12369.6,14697.8,13248.8,16301.9,12962.9,11644.2,13132.1,0.0,717603.6,
434,0.585,16464.5,17704.4,21769.8,26764.1,18348.2,22300.3,22624.8,12859.6,21260.9,24078.1,13080.0,51936.2,23733.3,9673.4,14967.5,65380.7,72447.2,20938.5,26874.1,0.0,562213.7,
435,0.295,18621.6,21543.2,16592.1,14223.3,16459.2,14980.1,13180.9,12258.3,16057.0,23740.7,16911.2,60306.8,31422.4,9905.2,24543.4,76145.8,80460.3,13892.9,16406.7,0.0,552588.6,
436,0.312,10485.6,15572.5,18874.2,18518.1,11919.2,16353.7,17670.6,8158.5,15279.7,27622.6,11612.0,52778.9,35257.1,7773.4,16998.5,53769.0,75090.4,18045.7,19753.6,0.0,555403.6,
437,0.242,12682.9,15437.0,15714.5,13826.4,14238.4,15751.1,15009.5,9646.9,11715.4,16399.5,14856.1,96276.9,25479.7,8544.9,19069.2,90448.3,100371.1,11382.6,9988.1,0.0,589014.5,
438,23.665,39844.2,66175.2,60254.0,32693.6,58742.5,56255.4,49648.0,39969.5,51888.9,19013.3,32452.7,29226.5,15222.4,29574.6,27490.2,80649.2,68974.7,38189.0,22638.2,0.0,522430.7,
439,0.252,8332.5,9015.9,14745.1,19805.3,12181.0,14772.4,16660.2,9556.8,12409.5,31811.8,33892.2,132234.2,44644.9,11931.4,39289.4,163494.7,162230.8,15493.3,23376.3,0.0,587362.4,
440,0.409,18603.2,19181.6,19716.5,16251.5,20961.5,23914.3,22174.4,20652.4,28978.0,34265.9,20758.5,120295.4,57559.5,12800.1,37029.0,112885.5,172760.3,21715.8,17912.9,0.0,546188.9,
441,0.828,8181.5,12259.6,17572.4,12100.5,14445.9,16208.5,15251.7,9926.8,15951.6,16830.6,17104.5,115804.0,33330.8,7218.9,37884.3,111665.4,104362.0,12109.3,12382.3,0.0,631864.6,
442,0.32,13166.2,15089.7,15614.9,11644.4,16360.2,18505.6,16434.7,10913.6,22107.3,14873.3,6480.6,115556.8,35811.8,7194.6,24186.3,76834.6,106565.9,13521.1,9221.9,0.0,595469.7,
443,0.27,20861.3,24478.5,28855.9,21511.4,24571.1,31115.0,29597.1,19115.5,33024.2,19021.2,21792.8,69907.1,25873.1,11726.2,28768.5,108517.4,96997.8,27019.4,15588.8,0.0,627175.8,
444,1.418,16011.9,17694.6,18021.4,15894.3,20658.8,21559.2,21754.9,23700.4,24573.2,46941.4,50721.3,256049.4,75171.9,22104.8,83650.5,245440.7,270509.9,21006.4,18075.1,0.0,655935.1,
445,0.943,26883.2,35148.7,41098.1,29213.5,39712.8,51722.7,47556.8,22848.5,48209.4,16838.8,18555.9,103573.8,27668.7,11826.0,30717.7,157421.1,151984.8,33272.2,21686.4,0.0,470578.7,
446,0.294,12256.4,15728.8,22870.2,32659.3,15259.4,20595.9,25488.3,12183.3,30400.8,85076.0,20228.2,160742.5,112655.0,9698.0,34079.3,121880.5,288582.0,39654.6,47892.6,0.0,627844.1,
447,0.225,11827.6,13708.6,13390.3,14334.9,17016.4,18917.5,18796.3,12515.6,20538.1,27093.8,21479.0,45577.7,35498.3,11076.6,17024.7,58908.0,96673.2,18064.8,20915.3,0.0,610073.1,
448,0.328,11411.9,15104.8,20276.8,18363.1,16811.4,20150.1,20664.0,12496.4,20920.2,30604.4,13114.3,125135.6,54719.6,9403.3,22810.1,85963.1,215259.1,18632.0,19336.0,0.0,693353.7,
449,0.339,8836.1,13645.0,18862.8,18070.0,14601.5,18451.5,19460.3,16071.5,26856.4,19153.4,16816.0,89640.9,32962.0,10555.4,30366.3,63529.5,35448.9,23216.5,16330.8,0.0,671215.5,
450,0.298,14774.3,22286.2,24064.3,20551.9,23924.4,27575.3,27622.6,22626.3,33884.6,41269.8,22091.4,137527.3,68314.2,12425.7,44040.5,129008.4,182771.2,28632.5,19624.5,0.0,684732.1,
451,0.261,12888.1,12600.2,15669.2,18451.5,15975.8,18901.4,18495.6,13695.2,17658.2,14271.6,22280.3,79831.2,26549.0,13085.4,25006.4,76894.2,99238.0,16253.9,11059.0,0.0,746590.5,
452,0.322,11568.2,18069.7,22003.1,21145.5,17346.2,21831.1,22250.5,12268.6,26005.2,21855.6,18986.4,96948.8,25540.8,7069.8,26988.6,131780.2,136574.0,20493.1,20945.1,0.0,648053.6,
453,0.462,19472.3,23078.5,40174.0,44492.4,34923.9,45349.4,48470.3,33175.4,57902.1,42759.4,34114.6,159715.7,76189.2,21563.8,52179.2,150649.3,142818.8,49351.7,41558.4,0.0,699682.2,
454,0.398,24498.6,38357.8,49527.9,53355.2,38488.9,45818.8,50627.9,25249.2,44826.1,66856.8,28236.0,90346.2,52286.4,19737.3,38893.0,135577.8,154708.6,46825.4,62426.8,0.0,709391.2,
455,0.298,18400.8,21512.3,18034.0,17219.4,23124.6,25974.9,22443.1,23031.7,32896.5,39575.0,22264.8,198637.5,81395.4,13681.0,48239.3,127131.2,217209.4,25699.9,19626.4,0.0,875249.3,
456,0.368,11130.3,19055.6,26040.6,31139.7,18555.0,25651.7,28089.5,12363.0,30577.0,102349.9,14828.8,88275.1,111775.9,5445.4,15495.6,76323.3,214569.9,39883.8,54822.1,0.0,801064.2,
457,0.267,17316.8,23561.1,20393.4,16930.4,20387.8,23031.5,20414.1,13204.4,23557.5,43276.4,12107.8,26015.2,40012.7,6510.4,16346.4,81680.6,66590.1,24644.9,28443.1,0.0,778051.6,
458,0.334,31836.4,39802.8,47516.2,45886.6,48771.0,58826.0,58288.7,44573.3,74721.8,41562.4,50039.4,200520.3,74443.9,35370.7,78799.7,196013.2,126364.5,58335.0,41244.8,0.0,811498.6,
459,0.223,14082.1,15632.0,14302.7,15402.4,17869.5,20129.4,20622.3,23375.1,33351.9,38071.7,38461.1,225703.5,83509.7,16915.3,75977.8,213934.7,155259.3,25627.5,19361.7,0.0,862845.3,
460,0.35,18855.3,19453.1,22487.0,16526.1,24836.0,29252.7,25978.7,27246.0,35121.6,22590.5,21416.8,198647.5,56547.5,18594.8,43333.1,55591.5,73711.5,26120.1,14515.5,0.0,783383.5,
461,0.35,13987.5,13589.4,14532.5,12844.9,12234.9,15209.1,14578.5,14238.0,16936.0,58723.0,44740.4,285820.2,113607.3,19503.3,59018.9,146497.2,204604.4,16665.5,19478.2,0.0,874665.1,
462,0.364,23676.5,22358.1,24535.8,20367.1,22295.1,25332.6,24972.3,19106.9,21439.5,17961.5,34007.4,147736.2,33215.1,20804.0,45297.0,149303.6,137682.3,17774.1,15356.7,0.0,884579.7,
463,0.417,16855.7,21935.0,24146.6,25443.8,31173.6,31837.9,31302.0,40978.9,50057.4,34549.8,35973.8,192049.2,65668.6,30218.0,82990.3,165620.8,86009.9,35117.5,25572.8,0.0,971114.0,
464,0.279,12773.7,18561.7,22611.9,19915.9,21581.3,27187.2,26351.7,20463.3,27871.7,57204.1,25308.4,140120.5,86762.5,15948.5,38803.2,98499.5,219923.6,24723.2,25130.6,0.0,990807.9,
465,0.205,13087.8,15591.2,13980.5,11133.2,16380.5,18856.8,14874.6,10597.1,15954.5,21886.9,12886.9,84314.1,41108.7,7688.0,23342.6,92718.6,130615.2,11071.9,9778.1,0.0,760252.7,
466,0.408,12619.5,14443.1,15544.5,13525.7,12137.7,15715.6,14513.2,12397.4,12633.6,64063.9,30747.5,300599.5,116829.3,12044.2,57782.8,144966.9,312426.0,14904.8,21058.7,0.0,792351.3,
467,0.265,21254.5,27720.9,35287.7,31607.7,32975.2,39255.2,40054.3,27425.5,42286.4,32786.3,14907.8,135593.1,63232.4,14810.2,28734.7,62947.6,174144.6,38294.3,29348.9,0.0,836764.5,
468,0.397,10940.2,11799.3,15917.9,21759.4,12818.0,14932.0,17452.1,15256.9,23300.4,59734.7,24942.4,159643.8,81014.5,15090.6,45038.4,93801.9,201618.3,25421.6,29869.6,0.0,917257.3,
469,24.57,9096.6,16337.9,19184.6,17832.5,11189.6,11886.3,14897.4,9105.4,15086.8,23216.5,7632.3,59791.5,32244.7,6651.1,12626.5,29239.6,62545.3,16407.0,20009.0,0.0,972648.9,
470,0.531,14659.8,14197.9,17279.8,18944.1,13395.0,13896.3,18012.6,15611.4,18501.5,36671.2,26210.0,73772.3,48547.9,15117.4,24760.2,85325.3,90046.7,23497.1,21267.5,0.0,928922.3,
471,1.165,12755.1,21358.2,28461.0,29023.9,22386.1,32149.3,31670.8,14173.4,31286.5,40039.9,14210.7,153719.2,45416.1,7973.8,32269.7,128340.3,115207.5,26976.0,34801.8,0.0,879736.9,
472,0.787,9574.8,10935.6,11183.1,12781.3,11032.9,13076.8,12169.4,6619.6,16237.5,22476.1,9630.8,37181.0,23114.9,4526.4,14196.3,41801.6,57155.5,11484.0,13894.4,0.0,854002.2,
473,0.317,9903.7,10890.4,14075.2,14917.6,8601.8,10567.4,11109.0,6088.5,7757.5,21977.5,23681.8,100155.9,25666.0,5091.4,34922.3,143777.7,133988.3,11622.4,15976.0,0.0,967615.6,
474,0.248,18783.9,27695.4,30045.7,28360.5,27489.5,31157.6,32785.2,18649.0,29446.9,35023.2,13443.9,85968.6,45413.5,12009.1,26959.6,97783.2,157879.4,26828.8,27850.3,0.0,913455.6,
475,0.294,14008.8,11648.9,14421.8,18182.0,12260.1,12188.7,14919.2,14700.0,21186.1,32040.4,18275.7,64145.7,39468.2,14953.8,21856.5,31284.8,57551.9,20101.5,28372.3,0.0,907923.9,
476,0.256,17075.5,16841.3,20631.1,17695.0,19232.1,21844.5,18984.7,13935.7,17647.8,10712.4,10176.5,32603.7,14882.1,13253.8,12733.9,34333.8,64734.6,15193.5,14787.8,0.0,896444.3,
477,0.23,9856.9,16968.7,24037.1,21637.2,17383.0,21716.2,24433.2,13112.3,19099.1,29130.3,7839.7,73165.9,37710.2,9704.9,17452.7,38550.7,101934.4,21357.5,26950.8,0.0,902899.1,
478,0.191,7752.3,10028.7,13225.8,9178.6,10446.6,13586.8,12772.8,9416.0,14929.8,14928.2,16674.2,91270.1,27888.9,8922.3,30591.7,90538.6,66306.1,11408.6,9893.3,0.0,773154.5,
479,0.274,15356.2,17151.4,21754.6,24826.8,17258.2,19304.2,22740.6,15871.7,25549.0,20408.2,14593.7,78487.1,31803.5,11796.0,27753.4,83927.2,39389.5,23395.7,17122.3,0.0,1003140.9,
480,0.321,6976.6,8613.0,12422.0,19191.9,9314.8,11451.1,12801.5,12264.5,15674.9,27679.9,25660.8,73746.1,28132.2,11511.5,33775.4,116310.3,73792.9,15534.5,21557.2,0.0,877410.6,
481,0.224,9602.7,8658.2,7557.7,10014.0,8915.9,7892.4,7516.8,14120.6,11900.0,17145.5,31557.7,135874.7,30704.8,13501.4,49603.7,139966.5,71662.7,9836.8,18729.2,0.0,972187.0,
482,0.236,5396.6,9589.6,14506.4,17207.7,9627.5,13454.7,16190.9,7586.8,18755.5,25414.3,10150.1,77449.4,33852.2,5444.9,15454.0,47924.9,120880.0,20413.4,14706.8,0.0,797203.6,
483,0.215,11897.7,14392.1,19343.9,19246.3,19179.4,20443.3,22612.7,20250.6,31468.3,36646.2,30695.1,165532.0,61706.4,15608.6,50979.8,143376.5,127227.5,25180.2,16489.3,0.0,736721.7,
484,0.246,6592.4,9693.9,15249.7,14543.6,11457.6,15520.3,14019.5,10331.0,13880.8,39896.7,23363.3,136992.8,56383.9,9155.2,41274.1,119890.7,129537.5,16218.6,19513.5,0.0,760326.3,
485,0.529,17455.1,25884.5,24219.6,20674.8,21334.8,25170.2,23300.8,10437.3,22000.2,57910.6,18079.2,97795.6,49922.6,8910.8,19067.6,65696.3,167386.5,18244.7,23838.9,0.0,740198.8,
486,0.259,15425.4,15187.6,18975.8,22115.2,20089.1,23640.0,22837.2,15759.6,23376.2,45327.7,11686.9,137028.2,56595.5,12180.6,24759.7,79269.6,208695.5,21320.0,21939.3,0.0,681369.2,
487,0.23,12655.5,17765.7,25470.7,21204.7,16084.6,23606.0,23662.6,11579.4,16921.7,27524.4,16996.9,173607.6,46002.4,8164.2,40847.2,107963.0,132577.7,17485.3,20954.6,0.0,745392.9,
488,0.226,11714.5,15373.5,19741.9,16619.6,17741.8,23550.8,21473.1,14407.7,26543.5,46199.5,19796.5,82798.4,40701.3,8153.6,24612.1,98558.4,104732.3,21598.7,24463.0,0.0,752362.3,
489,257.45,76909.5,84493.2,90497.8,428037.3,11466.9,10434.1,14552.7,12005.0,15070.4,35710.6,15105.1,56212.5,37380.9,11475.1,15486.2,34075.0,90974.3,28336.3,28318.3,0.0,850069.7,FRUITION-CALC
490,28.96,19766.5,68222.2,63702.6,28330.9,27504.7,32492.0,35087.2,24166.3,36570.1,32669.5,22404.6,44987.1,38996.0,15657.2,29805.9,31553.5,47536.2,40459.7,26767.4,0.0,695953.8,
491,0.602,15607.4,17013.5,18945.7,22652.1,16655.8,19732.1,21476.8,19840.1,25152.3,22210.7,19958.1,34848.5,28382.0,19768.9,24817.1,32455.9,26330.7,24973.1,23016.5,0.0,777171.5,
492,0.467,21018.4,22684.5,24774.5,26885.7,22272.5,27267.9,26434.3,23323.1,25796.8,23120.0,14448.7,35230.1,23948.9,19337.9,23719.3,58220.9,21607.9,25856.3,25526.2,0.0,895608.0,
493,0.352,8643.6,10966.0,9227.8,4242.2,7784.6,7255.3,6383.9,6171.5,7470.4,11447.0,4739.2,19293.4,14676.2,4877.3,5709.3,13144.2,32187.4,6207.2,7708.7,0.0,817454.7,
494,0.282,14157.3,14394.3,15434.0,14444.8,14641.1,14239.2,14037.0,14647.8,13009.6,13548.9,19069.7,19667.1,10568.5,12640.0,15749.0,59470.8,18046.6,11960.4,12228.7,0.0,751825.7,
495,0.409,26379.8,24998.9,26196.4,37681.9,28011.6,30058.4,31967.2,29062.2,39506.4,48087.8,21556.1,133404.6,74054.4,21812.1,43556.7,75389.1,127831.0,43423.5,42051.9,0.0,823615.0,
496,0.336,17696.0,25508.3,30203.8,33639.2,32460.0,38303.1,39411.3,31633.9,58739.3,49430.1,37563.3,197420.8,77459.2,20538.6,70490.1,197253.7,158288.2,41566.5,39226.0,0.0,755764.8,
497,0.306,10803.8,12308.3,11809.8,17263.8,13203.3,14180.2,14434.5,14776.2,18559.1,32384.0,33887.7,129325.4,39813.0,13712.9,46217.0,143917.1,116976.6,18473.7,22106.6,0.0,787914.0,fruition
498,0.482,12634.9,11774.7,9962.0,10361.0,12812.9,14174.9,12797.0,14868.9,20210.2,21812.8,17652.7,45071.1,31993.5,13229.9,23589.1,38708.9,52567.6,24153.7,13923.4,0.0,756171.4,
499,0.474,16533.0,22079.3,25372.2,85497.3,18726.9,22890.5,24213.4,17921.7,21150.7,18653.8,23120.3,82354.0,25565.5,10602.1,44382.2,164390.8,45204.5,27138.5,24829.8,0.0,875381.7,
500,0.51,14533.1,23098.2,24397.6,54504.3,27410.3,28210.5,30514.0,33309.8,35384.7,34501.9,23640.3,59515.4,43559.6,14148.3,40496.0,70168.5,69297.5,34915.1,32234.5,0.0,886342.6,
501,0.302,10350.9,15956.5,14945.1,34965.2,10353.5,15362.2,16527.7,11021.2,15579.2,11704.3,12362.1,65352.3,18870.8,7506.9,22610.7,72599.7,43685.8,15242.2,11476.6,0.0,845233.8,
502,0.305,15431.4,20238.4,23784.6,27440.9,19442.2,24222.4,27465.5,22820.2,28657.3,28327.2,14714.9,71290.6,40384.3,14347.9,28738.4,94973.2,97179.7,26863.9,25431.8,0.0,751683.4,
503,0.224,12188.5,7410.5,9826.6,10654.0,7567.3,7801.4,9672.9,9317.3,10080.9,11710.4,19376.7,71789.7,20101.6,15194.1,24983.3,99304.0,42276.2,10465.4,7541.7,0.0,784861.3,
504,0.368,10486.0,13354.9,14840.2,15420.4,16007.6,19957.9,19306.1,10878.9,25492.2,18449.7,9318.1,49089.5,27553.9,5530.1,14233.2,43255.4,23089.2,23845.4,18292.2,0.0,732257.3,
505,0.321,13542.4,16617.9,21083.1,25198.4,17324.9,19589.2,21102.2,10064.1,17230.0,28922.9,12921.3,41500.0,24350.4,12203.7,10672.6,54500.8,33224.3,23936.8,32927.3,0.0,762356.5,
506,0.318,12427.6,17938.6,19286.5,18480.6,17832.4,21984.8,21484.4,19447.7,26580.4,26607.1,25113.3,119348.9,52260.3,15998.7,38489.6,72717.7,62679.6,22551.6,17524.3,0.0,832483.8,
507,0.222,18388.0,14261.3,11510.4,16348.7,14957.0,13775.9,13753.4,18970.7,21945.6,21738.4,28371.4,156911.2,44388.0,17696.7,52404.0,128848.7,76215.7,17647.8,18660.5,0.0,681716.8,
508,0.325,11275.2,15014.2,24503.1,27314.9,15595.5,20157.8,24167.5,18422.4,26369.9,36563.6,35668.7,127047.3,50640.4,19205.5,48127.5,118658.7,133727.4,28240.2,27796.4,0.0,786714.7,
509,0.254,14772.5,20641.0,21956.0,18118.4,21219.2,24728.8,22104.0,21057.1,28317.9,21184.4,16949.0,74745.7,33061.6,12916.0,25741.6,31029.4,41198.1,19530.9,17953.2,0.0,743233.0,
510,0.233,10661.1,11853.3,12409.2,11196.1,14238.8,15654.4,15562.5,11754.0,17617.9,10595.9,8345.8,36435.8,13554.4,7814.0,9926.5,25770.2,41693.5,13283.7,9110.2,0.0,685648.3,
511,0.281,6563.2,9981.9,10004.2,6714.7,9388.1,9831.2,9635.3,8163.0,10062.4,8998.0,19662.5,49198.9,11299.0,6723.1,24419.1,96427.1,20471.9,7339.1,6023.0,0.0,633602.7,
512,0.348,13914.3,16540.8,15790.4,16645.3,17323.8,20246.5,20428.6,17791.1,27897.5,46492.4,36334.9,160602.3,65256.6,15812.3,53043.5,173624.5,206794.5,23833.1,20938.8,0.0,683093.7,
513,0.296,16767.5,19605.8,18584.0,12440.4,21707.4,25305.0,24201.7,21845.6,32647.4,37507.7,31593.1,147634.4,50495.4,17666.4,56811.8,161822.1,171124.5,19921.8,13478.3,0.0,649306.8,afterflow
514,0.248,13394.5,15567.5,24050.0,27511.0,18996.9,24754.7,30106.1,23278.4,40021.5,47292.1,33899.0,178299.3,82835.9,18428.9,58891.4,168015.7,165471.2,39299.1,38462.1,0.0,600159.6,
515,0.341,15657.7,16408.8,14899.0,10413.6,13621.1,13306.4,11134.1,10673.9,13656.1,10739.3,24129.1,114558.6,17830.6,10031.9,35234.8,138827.7,72743.7,11541.4,11293.1,0.0,605686.4,
516,0.291,10572.3,10259.0,11362.5,12064.1,11465.8,13200.6,12830.1,11163.7,17587.5,24540.3,17734.9,93889.8,38780.3,10804.8,27904.4,97205.6,88902.9,16097.9,10731.3,0.0,665834.4,
517,0.353,18753.0,20965.2,19789.2,15148.6,20761.6,20593.4,19732.6,9710.7,16661.0,19152.3,14498.0,91122.7,25105.3,8610.9,25829.3,127059.8,153401.2,10184.8,9276.4,0.0,567483.9,
518,0.274,9168.1,12462.2,16942.2,21273.1,13843.4,18060.4,21644.1,15501.8,25577.6,70472.1,22568.2,101428.1,86715.7,12152.1,30997.3,48484.9,204464.0,29269.1,31772.4,0.0,667362.9,
519,0.302,27343.5,29988.1,34791.4,31596.6,35874.0,39094.1,36877.6,36477.1,46935.0,32449.2,43949.6,181516.8,54594.2,29529.6,73581.9,194521.9,86728.6,36928.6,31108.4,0.0,602162.1,
520,0.293,24845.3,26955.7,26339.0,14743.5,30680.0,33446.6,29599.0,40119.0,52183.4,17926.3,44266.2,186127.0,43283.4,28000.9,86962.7,170985.4,64165.6,29391.6,15214.2,0.0,620253.3,
521,2.008,30945.8,121697.1,83926.0,24182.1,33907.5,36334.4,28455.8,23439.3,24878.0,21320.4,22249.9,84296.0,30215.6,20831.9,29371.1,84064.6,22272.0,19892.6,20233.9,0.0,605798.0,
522,1.911,20688.0,51773.2,44045.2,19060.1,24598.7,28848.3,25982.6,21641.8,34271.4,27653.6,8846.6,68343.3,34738.7,12504.2,27166.0,43113.9,49718.5,24560.0,20840.0,0.0,570369.4,
523,0.501,11536.5,18096.8,21428.3,18493.7,13528.3,14573.5,14896.9,13480.8,15195.4,20952.5,11664.2,24394.5,25509.2,11537.6,16152.2,28302.2,37922.1,19677.6,16530.7,0.0,697455.2,
524,0.376,7537.0,13103.9,13246.5,10405.5,8506.0,9564.0,10659.3,9409.8,11876.4,11323.3,18923.6,62257.9,15677.7,10488.2,32072.4,105717.1,37977.3,13744.6,9889.1,0.0,682892.4,
525,0.255,4783.2,5721.9,8633.0,6560.2,8158.2,8976.3,9995.8,15816.4,16916.0,18940.4,31175.0,73771.0,32301.4,9504.7,37885.0,102290.5,71633.5,19436.6,10208.1,0.0,672388.3,
526,0.26,19564.6,23280.8,23884.6,20526.1,23520.4,26828.4,27179.2,19033.9,29179.5,27673.8,13292.6,155279.7,52817.3,12271.5,29205.1,127809.0,150995.1,32191.1,25487.7,0.0,643282.1,
527,55.074,18662.9,40952.4,44610.3,31130.8,28075.1,34221.0,34265.6,30879.9,51061.6,31325.1,13747.3,229136.6,65663.9,11279.9,78826.7,168377.6,93053.3,38665.2,33077.7,0.0,639387.5,
528,0.327,10514.6,11730.9,11052.8,12015.5,10758.2,10976.5,10924.7,8389.3,15172.3,18525.5,18414.3,19299.2,13409.1,7247.6,9896.1,52868.9,19247.3,12262.7,20724.0,0.0,580051.4,
529,0.344,12754.0,17634.3,13618.8,11212.3,12085.0,12135.5,10854.6,7235.9,7224.0,25283.7,12225.5,48903.2,16690.9,5377.7,16212.0,57829.8,71159.2,9957.3,17238.8,0.0,577305.1,
530,0.293,14152.6,17874.4,14779.2,15231.7,15769.0,16523.8,14810.1,15324.2,21889.2,16946.8,22254.6,124547.5,36939.2,10347.2,41558.7,107075.0,109687.0,17459.4,12612.7,0.0,656939.7,
531,0.251,14239.2,16051.8,17803.9,22529.3,16803.5,17909.3,18601.5,17691.6,22322.1,30588.5,12801.4,57373.0,38247.4,12338.6,17595.6,23220.5,59430.3,22965.8,20562.6,0.0,667784.4,
532,8.463,10708.3,14997.9,16467.1,14659.1,16491.9,19178.9,18177.1,15160.1,20376.1,15962.7,21025.3,86120.3,26080.1,10445.1,33569.3,121628.0,106828.8,10864.7,9994.2,0.0,581660.2,
533,0.744,16576.0,23672.6,32882.0,35526.2,24752.6,32684.0,37469.3,19355.0,30724.6,64524.7,39583.9,189208.4,84173.6,17070.2,53656.9,210171.7,262290.0,40101.1,42390.0,0.0,736497.9,
534,0.468,23546.6,29293.7,38414.4,34827.2,32264.0,38542.2,37579.2,15695.8,31988.3,34082.0,7685.0,58738.9,40206.7,14731.5,13524.1,103015.7,148131.7,32658.9,22319.4,0.0,558651.8,
535,0.217,16911.2,18013.8,18280.2,19781.1,20283.7,23013.5,21612.1,14069.5,20369.8,19718.6,11498.1,76250.9,35113.2,9213.8,20882.8,112973.7,122588.4,16809.8,24355.5,0.0,566032.7,
536,0.227,15734.0,23084.0,27022.4,21590.0,22309.1,25476.7,26353.7,16669.9,27302.7,17018.7,20532.1,120188.8,39226.1,10554.3,37886.8,152380.9,122275.0,20815.1,20726.9,0.0,686202.0,
537,0.392,14301.4,15404.3,14318.1,14535.9,14137.4,13742.1,13191.8,13359.7,12202.5,32288.8,29836.5,118994.4,49792.9,14322.9,32721.0,141157.6,209192.8,13442.7,17977.7,0.0,643821.6,
538,0.964,20230.2,21766.8,17290.6,12935.9,23778.3,23934.7,22695.9,26788.6,29189.0,51216.8,27511.0,125363.5,54514.9,25283.4,42593.1,104049.1,211873.9,18764.4,22205.9,0.0,613062.1,
539,0.505,22883.7,22376.7,19685.4,19295.4,24455.2,23886.2,24327.3,27023.8,30677.3,31110.7,22928.0,138452.9,57585.7,19908.9,43569.2,102125.4,150565.6,24358.1,25064.7,0.0,535293.6,
540,0.299,23897.9,30582.8,24919.9,27829.5,27751.8,33690.2,28353.6,17234.3,29373.9,39594.2,12614.9,111922.7,53811.6,12052.3,25458.8,131374.8,199191.2,27266.2,31963.2,0.0,533437.3,jhana 5
541,0.454,59962.1,68991.7,64678.1,57448.6,72077.7,75335.1,70560.4,47010.1,64508.6,38194.8,30769.3,94819.2,40688.9,38119.1,38805.4,93444.6,106991.1,57238.9,47508.1,0.0,550523.3,
542,0.374,26371.6,32360.5,40508.9,47143.6,40666.0,49478.8,50752.3,34570.7,59244.2,115885.9,17815.5,189375.7,141218.8,21776.4,39497.0,73283.4,244308.9,66505.3,78767.8,0.0,525321.4,
543,33.548,31361.9,114065.1,106436.1,55371.1,45456.6,59390.9,63857.6,29092.1,52915.1,40406.7,28728.4,57104.8,34306.0,19823.5,30288.4,137720.6,107050.2,46156.1,40389.5,0.0,530124.1,
544,0.541,12102.2,13221.9,14961.0,13275.3,15658.1,17164.9,16886.0,12486.8,16044.7,19369.0,24670.9,116393.7,35433.3,15312.4,38710.0,114880.3,64897.6,12379.0,13383.9,0.0,527170.3,
545,0.33,6267.6,13499.8,15893.7,14948.3,9796.1,14309.2,15903.6,4920.5,8117.2,11947.1,25361.7,67718.6,19745.9,5810.4,35960.9,113553.4,74038.0,11053.2,12802.0,0.0,461710.8,
546,12.631,30274.8,36056.9,37283.7,33017.5,38618.8,38532.4,37314.3,32792.0,38237.5,22166.0,24948.3,45015.3,32645.4,25733.0,29920.1,71584.8,74230.8,31672.0,24558.0,0.0,495332.8,
547,0.853,21055.0,28162.5,28321.0,23020.1,25192.4,30344.0,26412.3,19446.3,27028.9,19552.7,9420.2,34863.3,23974.9,13842.8,17702.6,29792.8,27137.6,23349.8,18978.3,0.0,483389.0,
548,0.708,11534.3,18731.1,18673.8,13815.3,16137.0,18542.9,17419.9,15344.2,19193.6,15181.1,13293.3,33486.3,20606.5,9316.8,17692.3,33016.0,24285.5,16537.0,15216.3,0.0,402486.1,
549,0.3,27614.5,28518.8,33387.8,38961.9,30764.8,34277.2,35526.2,26119.8,39064.7,50175.1,15634.9,35181.0,48030.4,22101.1,17605.8,13394.4,60933.6,40659.3,42752.2,0.0,498370.5,
550,0.419,23791.2,25628.3,27935.6,34774.5,28407.2,33294.7,35037.5,25066.9,36895.1,44844.7,26285.9,80421.1,57573.7,19871.4,33059.5,127147.1,178292.4,41096.4,31008.3,0.0,451446.3,
551,0.562,16199.1,20226.1,16349.8,12421.2,15914.3,15809.9,13320.2,10655.7,14468.3,17666.7,19070.6,34412.8,19294.3,12963.4,18288.4,105318.9,46829.2,12085.2,9608.0,0.0,560610.0,
552,0.398,21539.1,24731.7,25865.0,30972.3,25214.6,29874.6,30316.6,18930.0,33913.9,30243.5,22315.0,102563.8,39898.7,15466.4,26108.0,88523.1,119685.5,25374.1,26208.6,0.0,523838.7,
553,0.859,22134.9,28407.9,32228.2,35320.4,30377.0,36547.6,39439.9,30854.0,49212.8,32362.4,30398.0,79993.7,51463.6,24314.8,34349.2,54998.1,69536.9,45751.7,28854.1,0.0,568303.0,
554,0.748,23781.0,20475.1,27046.3,24677.0,21302.7,23422.6,25263.7,19885.2,21914.0,40355.6,26955.0,44087.5,40820.5,22312.2,24487.8,81220.7,100314.6,40748.1,24975.8,0.0,574262.7,
555,0.558,38369.5,38329.0,36261.1,37543.3,45117.4,42491.4,45373.6,44764.6,44596.4,28078.3,16357.4,110081.9,46552.9,23702.0,31084.7,71162.4,126114.0,49775.6,30265.0,0.0,629349.2,
556,0.358,25710.1,29136.1,23571.7,22285.9,26817.1,28238.8,25585.7,25181.9,34477.0,23753.0,34603.8,95341.0,28457.0,23771.3,41966.8,100079.2,64967.1,30386.5,22637.9,0.0,696638.1,
557,0.272,11434.6,13979.1,14514.4,13764.4,15614.0,14220.7,15279.6,15898.6,15894.5,21690.4,22631.0,52691.6,20398.5,13905.3,29868.4,71132.7,46886.2,14503.2,13796.8,0.0,604678.6,
558,0.285,18750.8,21406.2,13468.1,11093.2,17782.7,15991.2,14252.4,21065.3,18122.8,27026.0,26800.7,71458.8,35774.2,16037.0,42432.2,123814.3,58437.2,15397.1,18139.7,0.0,772704.4,
559,0.3,9979.0,11973.3,12209.7,19475.2,12574.5,14522.4,14373.4,13491.9,16312.9,19061.7,13783.1,72245.2,27835.4,13963.0,25224.2,71725.6,54246.5,14771.3,17976.7,0.0,708104.1,
560,6.028,8705.8,27150.8,31600.4,15648.6,13662.8,15619.5,16749.2,15579.2,16344.2,26844.1,29888.5,125150.4,43189.9,12835.1,38808.7,104859.4,74183.1,17404.9,17846.0,0.0,734403.8,
561,0.729,22172.1,35452.4,40662.3,39096.4,30789.5,37826.3,37518.2,26707.8,42186.5,46173.4,22605.3,115654.4,54087.5,18791.1,41689.7,79689.7,73139.7,39344.5,37319.8,0.0,692612.5,
562,0.382,15162.5,17769.8,17949.2,15123.8,18862.9,19211.7,19408.1,26445.5,29209.9,35147.7,33745.1,91625.5,42485.9,23727.4,42663.9,92171.1,63126.5,23391.9,21760.2,0.0,660703.3,
563,0.238,17388.7,23538.4,25000.5,20025.3,24197.4,28597.1,29173.7,18471.0,33397.9,22540.6,9646.9,41779.7,41046.0,12098.8,14466.1,17289.5,41612.3,28996.3,19793.9,0.0,677294.8,
564,0.251,15120.2,23552.2,30392.4,29512.7,23063.3,27060.3,29056.9,17188.4,25785.8,22079.7,8367.6,18894.9,23505.4,12679.9,15616.0,31792.1,24729.9,28958.8,27803.2,0.0,569217.4,
565,0.24,17220.2,27674.2,27752.7,20028.7,20213.6,24309.0,23798.9,10453.0,17474.0,29684.2,15447.1,118980.7,53910.4,8764.2,29183.6,121337.4,118926.7,23988.2,17708.3,0.0,666423.3,
566,0.253,24786.5,27553.4,24702.6,21591.7,24866.2,26100.4,24846.2,15234.1,21994.9,13891.2,20201.8,96250.4,13055.5,7554.3,32386.4,127650.5,40268.0,19296.8,20263.1,0.0,554297.6,
567,0.214,11977.6,15387.5,18595.8,16754.7,17776.2,23708.4,21228.0,14453.3,28921.2,28869.0,18710.1,86756.7,32627.3,9856.0,32142.5,87263.6,73148.6,24051.6,19741.4,0.0,561426.5,
568,0.405,11783.9,15984.6,22107.6,18211.3,21965.2,25188.1,23466.7,14191.7,25724.1,8637.7,29353.1,88396.6,20544.4,9954.9,34999.3,136366.8,55219.0,15867.8,15973.3,0.0,646696.1,
569,0.818,16431.1,20526.2,17720.3,20356.3,20533.0,23071.5,24108.8,26056.5,33002.0,29782.3,44541.7,231414.6,65631.4,20998.7,83123.5,194406.2,147806.6,26206.2,26038.6,0.0,639118.5,
570,0.375,20087.2,25440.1,27170.3,22883.1,23359.8,25569.6,24927.4,15983.5,19422.6,19383.3,12484.5,70510.4,25992.7,9804.3,20252.5,54562.7,105571.3,20424.6,18398.7,0.0,677272.4,
571,0.483,27513.0,31204.5,36683.1,32393.3,32777.5,36496.3,32734.5,30748.9,38905.3,34360.9,26995.0,79869.7,42533.0,25414.0,32794.0,64658.2,107141.2,27365.1,25418.4,0.0,625937.1,
572,0.199,12866.3,13343.3,9956.4,10672.3,14843.2,13897.6,12258.8,12290.7,11903.6,12915.4,17557.5,49265.9,19090.6,12230.4,21124.6,64290.0,59136.2,10408.8,10736.7,0.0,658346.9,
573,0.302,16945.3,21297.3,19534.9,16575.7,18404.3,22009.8,18287.2,10768.6,13963.2,23888.6,13606.8,80877.9,30210.9,7018.9,23122.4,84311.1,72250.1,12887.0,16022.4,0.0,594268.9,
574,0.235,15137.7,16162.3,20966.1,22874.6,17724.4,22067.4,24535.1,17752.0,22719.9,32649.4,32768.2,81548.5,40255.4,21837.9,38345.5,123301.7,113726.5,22238.0,22784.0,0.0,589915.6,
575,0.572,14383.8,23617.1,22685.4,18008.5,26081.0,28400.3,23675.0,17586.0,26198.0,26207.4,15959.8,88208.0,38460.8,10482.8,22711.4,110595.3,152516.5,21247.0,17109.3,0.0,649271.0,
576,0.315,17708.9,22034.0,25992.7,29117.0,25531.1,28138.3,28141.6,20540.4,29177.8,31062.4,17734.8,106737.4,41633.6,14461.9,37470.4,132004.5,172367.8,30196.7,21261.4,0.0,671091.0,
577,0.322,7494.2,9054.4,12161.9,9832.3,8668.3,10793.5,9888.5,8628.7,13292.4,17983.0,11278.9,89509.1,30447.4,3697.5,24929.7,107858.7,92735.7,15045.4,7377.5,0.0,572820.7,
578,0.348,12103.4,16265.1,21567.8,23606.3,18148.3,20486.7,20592.0,17507.7,20104.7,20179.0,18600.1,59517.7,29291.5,12310.7,28981.4,64042.9,73476.7,20341.0,18173.8,0.0,652439.3,
579,0.319,19511.1,25207.0,30819.1,34471.5,23991.9,27952.7,30258.1,17411.8,24471.2,28387.9,30702.9,68374.9,34399.2,18774.4,33912.7,96796.2,92384.5,32081.0,28802.2,0.0,615160.1,
580,0.231,4931.8,8279.9,13592.5,16818.2,8641.2,11269.6,11906.3,8510.0,12445.5,28241.8,27627.2,83505.5,23380.6,11031.0,33185.8,110926.0,62949.0,11528.9,26981.8,0.0,560332.0,
581,0.255,14322.9,22022.6,29786.7,29100.2,24736.0,30615.5,33273.4,22258.2,33328.1,33671.1,26296.2,128252.6,54707.6,11493.5,52627.4,158060.1,89879.3,34971.3,32395.8,0.0,663310.1,
582,0.237,9243.4,17918.6,28610.6,32080.4,18128.9,29260.1,30705.1,16398.1,29810.3,32459.8,20783.6,94621.8,36491.2,8204.9,38977.2,130336.2,93441.1,33374.7,30943.8,0.0,679514.5,
583,0.278,19676.1,28885.2,28967.6,27314.1,36831.3,42399.4,39536.9,27898.8,51050.3,32317.1,9062.2,114306.7,59573.2,11487.1,29664.7,80068.0,117431.2,40062.3,21796.5,0.0,527711.0,
584,0.252,19672.0,24199.1,21146.7,12436.2,24133.9,26353.4,22898.5,13590.1,22079.7,24229.8,10666.2,35399.5,18837.7,9587.7,12924.8,49136.8,57504.1,14401.9,14495.3,0.0,620900.9,
585,0.243,18602.3,28194.4,26232.4,28717.3,29620.1,36218.7,34487.0,21174.3,34086.3,30832.1,13799.4,68488.5,37981.6,16127.9,15497.4,64881.3,112258.6,29002.1,27428.0,0.0,560319.7,
586,0.415,37879.6,38569.5,38917.4,32017.6,50404.8,57653.9,54976.9,35899.1,65754.9,19346.6,15472.8,69159.3,30230.6,27735.4,26529.5,72501.1,87876.9,40182.5,18760.6,0.0,652512.5,
587,0.348,25035.9,45247.6,48411.9,36996.5,42665.9,50470.8,49818.1,25960.4,47287.8,28572.8,37528.2,84149.1,44922.9,14961.3,41795.5,111674.8,128217.4,42285.7,31250.6,0.0,571633.9,
588,0.365,8412.3,18253.6,26242.8,21138.7,16680.8,20747.0,21244.1,13738.6,30564.4,49705.6,24119.7,116487.8,73736.5,9306.9,40702.6,122957.1,157354.8,28608.2,27768.6,0.0,597340.2,
589,0.264,7676.5,10433.4,15548.4,29813.7,11247.1,14688.7,15905.7,12118.0,16928.8,51654.4,15864.1,72802.6,40938.4,7444.6,29635.5,85632.1,102271.2,21005.1,40576.3,0.0,644136.3,
590,0.492,13552.4,22834.0,26544.8,30542.9,19629.4,21379.7,25969.4,13616.7,22627.5,30908.4,15254.5,101139.1,39897.7,9670.4,21448.8,107565.5,139824.3,26104.2,22463.9,0.0,655672.8,
591,0.955,17673.8,19368.8,22645.7,21311.1,21221.1,24242.1,19850.1,13982.7,17324.9,17181.4,18911.0,69536.8,24439.8,12383.1,26560.6,90530.6,109185.6,13923.4,25009.7,0.0,696149.2,
592,0.413,6398.4,7889.4,9293.9,10345.9,7821.7,8538.5,10174.9,5882.3,8654.5,14676.8,19036.9,59047.5,26530.4,8474.2,15594.8,89632.6,99111.5,8109.3,10854.9,0.0,676966.0,
593,0.305,12161.1,15775.4,20155.6,21266.9,18248.0,17205.4,19014.0,16924.8,22584.9,27085.5,16714.3,77590.6,30143.1,14395.2,30477.8,76921.2,57494.6,17339.1,18020.1,0.0,752960.9,
594,0.227,12956.1,26880.6,34296.0,36149.5,27856.0,38190.0,42729.4,10855.7,28559.3,24269.4,7527.9,28593.3,18004.5,5190.1,14979.1,62213.0,46968.8,31720.6,32208.5,0.0,657524.7,
595,0.299,11394.0,11457.7,12164.5,18596.8,13781.7,15752.0,18697.0,12548.2,17655.4,25879.6,21722.8,105151.8,42630.8,10451.3,29961.4,90204.1,126894.4,19873.2,25038.5,0.0,691817.9,
596,0.377,16522.3,31738.5,36011.5,25255.7,34313.0,47538.0,49915.1,18536.4,48063.3,24223.1,15317.1,49211.3,30031.5,9107.9,13666.0,83940.2,103196.5,34180.8,19633.8,0.0,725987.6,
597,1.714,23547.9,22898.6,26214.6,31144.5,30010.8,32997.4,30584.7,26319.7,40958.5,38353.2,15251.4,72430.5,34644.8,17280.7,35023.5,54043.4,88940.5,31955.1,35140.4,0.0,730507.9,
598,0.491,29011.3,27194.7,22653.6,21388.4,27654.1,29040.9,26269.7,30156.3,34675.4,49940.4,27140.9,108345.0,60775.8,23426.8,45881.1,112778.0,170503.3,26242.1,25271.1,0.0,720724.6,
599,0.335,32648.9,36928.6,35515.9,29441.2,38180.2,41029.0,39438.8,26379.7,35488.9,43996.9,15696.5,51574.5,45147.8,20810.3,18687.1,70265.2,88607.7,36937.2,35228.2,0.0,728043.4,
600,0.332,12188.7,18426.8,24851.0,34004.0,17401.3,26545.5,30668.3,14134.3,30249.2,45947.6,23279.6,40954.3,49371.7,11746.1,23192.5,55788.6,49928.7,37355.0,43128.5,0.0,812798.5,
601,0.499,12726.5,21791.7,28589.4,27906.6,25873.3,33208.9,33031.8,17643.6,30641.3,32211.8,26334.9,103733.4,35058.4,14371.4,28733.7,118563.4,135904.1,26869.5,30258.7,0.0,875663.4,
602,0.246,18071.4,30017.5,39121.3,31824.7,34253.9,43694.1,45741.0,24705.9,40090.2,16412.2,17521.3,70582.0,32883.8,14265.8,32549.2,102079.4,106887.4,38436.5,28649.8,0.0,782193.7,
603,0.264,18161.6,26566.6,38004.8,38693.1,29620.3,35482.9,38512.8,24997.2,33162.7,30716.0,19280.9,65364.5,30251.6,18638.6,32218.3,50695.2,71156.3,31425.3,32284.0,0.0,707728.1,
604,0.332,12294.6,9122.5,8498.6,8005.9,12892.7,12539.4,9661.7,17169.4,15844.4,31587.8,21078.6,74917.2,35612.8,18654.1,32319.2,58973.2,95592.9,11075.0,15986.7,0.0,867222.6,
605,0.298,22646.1,29377.2,34441.8,30155.6,36424.7,38679.4,38355.5,31128.0,49202.0,30400.8,19571.4,136644.7,58550.6,22642.2,30908.6,55960.9,104903.3,35577.3,21525.9,0.0,864225.2,
606,0.233,20315.9,22537.6,25751.3,20484.1,24373.3,26490.1,25128.3,21026.9,28517.1,45420.2,23645.5,111993.9,46156.7,15583.2,39098.5,115805.6,134205.8,21149.0,25791.9,0.0,980093.9,
607,0.729,16802.1,27420.5,30518.5,23744.0,28577.3,36053.0,34511.4,16572.4,28244.3,16180.6,11129.0,53984.3,19819.0,13126.5,14772.1,53575.3,72323.1,23994.5,19149.6,0.0,834197.7,
608,0.259,12303.4,16791.4,20066.0,14792.3,16229.2,17490.7,18713.1,10570.8,17067.9,21504.4,11408.9,36628.5,30640.6,8464.6,14402.6,36093.7,101065.0,13181.5,12918.8,0.0,932120.9,
609,0.325,22683.3,23741.7,33953.9,35808.3,22162.2,26408.7,29191.6,18260.7,26239.0,33060.1,18217.0,100614.4,52958.2,20711.7,25207.7,68160.8,115484.3,29572.0,29538.6,0.0,992899.8,
610,0.36,29680.7,31896.1,30493.7,22547.3,36276.2,37079.4,32027.2,34606.2,40692.4,46740.6,22774.5,121813.9,66938.2,28862.2,38939.3,105052.4,202297.9,25125.3,21337.2,0.0,864402.2,
611,0.268,23501.6,26129.5,29882.9,40106.2,27253.1,28629.4,33464.9,30516.8,31874.9,31683.7,23251.2,41018.0,26251.2,25033.7,31087.5,43021.9,74172.2,35993.3,40442.3,0.0,1030601.1,
612,0.259,15389.2,20989.3,20955.1,22612.9,20097.9,21080.3,20867.8,12017.2,19108.4,41187.0,21132.6,99556.6,28703.4,8525.8,30711.5,97188.6,73808.0,21945.0,31562.7,0.0,893363.7,
613,0.22,16668.4,19204.4,21433.2,27473.5,18966.5,27028.8,27321.8,15399.1,31081.2,64046.4,16208.4,87171.1,63767.5,13053.7,21970.5,50679.7,153641.0,33049.6,42624.7,0.0,964722.7,
614,0.292,22471.8,23180.8,24744.4,27933.4,33583.5,35038.7,34184.3,31209.8,43992.5,81420.4,30314.3,144740.7,111306.7,21373.9,44585.0,77896.8,204781.1,45252.0,41539.0,0.0,874693.0,
615,0.617,18724.0,33745.8,33644.3,25991.6,36297.5,41662.3,37587.5,18799.2,34588.4,30204.5,37180.4,114628.0,46879.9,20269.2,40777.1,103918.4,137798.1,26494.5,26433.6,0.0,926311.4,
616,0.297,16024.7,17282.9,17748.4,18336.4,21590.6,24304.9,24280.5,20560.7,33621.8,45208.7,13718.6,95353.9,62666.2,12481.6,22722.2,36909.4,151208.2,24763.3,28097.4,0.0,765032.3,
617,0.24,11239.6,18443.4,20619.7,15107.1,16996.2,20945.5,20992.8,11704.6,21743.7,31951.8,17194.1,45582.1,29280.2,8987.4,21462.7,40394.7,54666.8,16308.0,13525.7,0.0,722237.9,
618,0.254,10698.6,18388.0,22087.9,24793.0,25415.5,33391.4,30710.5,19557.5,32492.3,45940.2,14789.0,76766.2,45691.5,10494.3,31575.4,71987.2,108222.8,30622.2,30765.3,0.0,828672.7,
619,0.748,14886.0,17773.7,20586.4,16419.2,16949.5,21309.9,20755.2,15339.2,19022.6,20551.9,30018.0,71552.5,30938.5,17120.0,38382.2,100020.4,36212.5,21314.2,16007.6,0.0,824415.7,
620,0.271,12840.1,18886.0,24512.4,30911.5,17993.8,22339.2,26212.7,13999.2,28149.4,21343.7,22771.5,69625.4,34031.6,12768.8,25208.4,75533.0,27674.3,30605.2,30667.3,0.0,689518.8,
621,0.25,18805.1,19550.8,28671.7,28445.2,20528.7,25978.4,28694.3,20538.7,25550.8,33477.3,27496.7,85345.2,37396.6,22074.6,38104.6,80608.1,93031.8,25703.1,26923.0,0.0,749612.1,
622,1.342,17411.7,22924.9,29581.5,25495.4,24160.1,28221.2,28745.2,16728.1,22435.7,20256.5,10633.8,105355.9,49648.3,10518.4,20220.7,86478.9,157417.1,23929.2,19578.0,0.0,726499.5,
623,0.24,6632.0,13999.2,19735.7,19533.6,14672.4,20157.0,21333.1,8746.5,23465.2,34617.9,14235.3,109890.6,73163.2,4142.1,20918.4,76480.7,188695.6,21229.6,18919.1,0.0,795210.7,
624,0.228,5806.9,10978.7,18763.8,14158.6,10362.8,13405.6,14287.2,9194.1,13140.8,29211.7,14707.7,94723.3,50736.5,7481.3,23465.9,67680.5,134288.6,13687.1,18402.9,0.0,767437.3,
625,0.382,25893.6,29033.1,31867.7,23169.2,31610.8,33266.2,31213.0,34401.4,38312.3,32044.7,37512.2,126511.0,49310.9,28291.6,64474.5,132085.4,81943.9,26639.1,24183.0,0.0,751880.0,
626,0.284,15866.0,19632.4,18555.3,13830.8,18918.2,22163.3,21001.2,18074.1,19006.0,18695.9,16361.7,55888.4,38404.8,16306.3,27797.5,49531.4,70813.5,16919.6,18681.1,0.0,783826.4,
627,0.325,15943.4,20627.5,22981.5,21240.1,21130.0,26058.3,25470.4,20992.8,29587.2,32265.7,14183.4,77075.7,39266.1,16443.1,32506.3,65857.0,85704.0,18845.3,29227.2,0.0,777868.0,
628,0.205,12428.2,18400.8,23747.3,19456.2,18155.9,23191.2,24828.2,19488.7,21031.6,38742.8,28663.8,129217.2,56763.5,15049.1,48018.0,132961.1,150560.6,23418.9,23582.0,0.0,770449.9,
629,0.229,24281.3,22158.7,26642.8,20297.6,24388.8,27156.7,25515.7,17706.8,20376.2,24882.6,18371.9,134657.2,55708.3,14904.5,37328.3,93812.6,154376.9,17936.9,18611.4,0.0,741437.5,
630,0.213,14058.9,16031.4,15102.0,11932.7,15680.9,16191.7,13234.3,11692.1,12325.0,30652.1,16959.7,120168.6,57490.6,10066.7,27638.7,87963.0,145684.8,10805.0,16865.4,0.0,765118.7,
631,0.313,34345.5,43887.3,51039.8,38967.7,48300.7,56719.9,53421.1,35112.5,42776.4,39728.4,18926.5,100528.9,48759.3,23395.7,31558.8,78630.2,139616.6,41788.7,32831.6,0.0,719041.2,
632,0.296,21659.5,26766.1,32993.3,27010.6,34400.8,40545.5,36675.8,26864.6,44550.3,45892.1,21889.9,63107.1,36048.8,19630.1,29637.3,69359.7,106439.6,30035.5,30242.6,0.0,699618.0,
633,0.237,9510.0,18192.0,23123.3,20196.6,18870.7,26013.9,26455.2,10697.7,22385.4,26839.0,12520.5,105925.7,45649.2,8189.3,21400.9,84152.9,128879.1,21090.0,18674.7,0.0,636634.8,
634,0.214,13522.8,17923.0,19901.4,15366.5,22408.4,22109.6,20017.2,12579.6,23447.2,26031.9,5898.0,84386.8,29898.6,6644.2,14379.1,53795.1,83191.0,16040.8,18022.0,0.0,706193.3,
635,0.281,15613.2,21811.1,29084.7,30009.8,20775.0,28496.9,29844.1,12222.3,29233.8,43196.0,14280.6,51350.0,36587.4,12380.3,12933.6,31720.5,44499.0,31673.4,41745.1,0.0,620060.0,
636,0.243,9297.5,15661.9,16342.4,17828.0,13000.5,16295.4,19908.5,8541.5,16752.9,30900.0,11732.1,55619.9,43342.0,6512.2,19374.3,52484.9,90708.9,17087.0,17386.3,0.0,605835.9,
637,0.254,12788.2,17447.9,16171.6,12964.2,19290.9,21384.4,19475.1,18112.8,23574.5,28441.9,27809.3,79742.0,44899.9,16100.0,35935.7,85002.3,104905.9,17312.1,11622.0,0.0,587434.1,
638,0.372,23469.9,27046.9,24895.9,25210.7,32297.7,31084.3,30898.3,31399.0,48975.2,51549.7,30735.4,169725.6,91378.8,20206.7,57397.3,125998.6,188390.7,34440.3,32378.0,0.0,719783.4,
639,0.213,13590.7,14973.3,19965.9,20786.3,16944.9,20702.6,21846.1,15896.8,19976.7,22919.3,16278.7,72263.9,48042.6,11862.1,25290.2,63398.7,76427.9,25490.4,28003.5,0.0,682753.2,
640,0.256,8603.2,10905.9,16491.3,11975.0,14730.5,17313.5,16131.9,8694.9,18079.3,31060.8,12742.0,113897.9,67802.6,6578.0,21216.5,51367.5,128338.1,14243.1,12334.3,0.0,701652.4,
641,0.306,25496.1,37093.1,37080.3,31079.3,35861.4,38928.5,34849.8,17450.6,24681.9,19147.5,8493.9,87776.4,38942.5,10451.6,16760.6,54210.9,117483.3,23579.0,23193.4,0.0,618572.4,
642,0.268,8732.1,13991.1,17305.5,13141.7,14402.5,20165.3,20341.1,12211.5,24385.2,22093.0,10492.3,86161.7,38279.9,6732.4,23522.0,55988.3,111828.9,18804.4,21248.9,0.0,569202.3,
643,0.235,16157.0,21411.1,20412.0,18214.1,15727.7,17770.4,16414.8,11534.5,18285.1,20505.6,12699.5,93265.9,32606.7,12278.1,22048.9,53464.3,136157.8,13376.7,21077.2,0.0,616470.4,
644,0.261,35530.7,23347.6,19380.2,22035.2,25126.5,22925.9,20722.0,38907.8,27681.4,49699.0,59613.4,79826.4,46188.3,49065.1,65419.7,113501.0,137591.8,20341.2,27241.4,0.0,661712.9,
645,0.174,10056.4,8638.3,10269.7,14846.6,9173.8,11045.6,10659.2,11546.3,14216.6,26087.7,19424.5,72148.1,24725.7,10638.6,30152.4,59531.7,82464.9,11658.7,20551.1,0.0,649262.8,
646,0.181,11258.7,18292.9,29891.8,27884.0,19118.2,30075.9,33045.7,15734.8,35131.0,31474.2,24729.2,116621.6,41992.2,11731.8,47705.6,103521.3,98295.8,30871.3,31224.3,0.0,706026.4,
647,0.218,10790.7,10560.3,17733.1,25174.8,10242.7,16379.7,20647.2,20370.7,25223.8,60870.1,42893.0,140482.9,74492.1,22671.7,61799.8,112026.9,157863.7,27294.9,37881.8,0.0,686342.2,
648,0.384,28810.9,39951.4,43309.7,40679.8,44957.7,55848.5,50947.3,30757.0,61134.3,48097.9,32850.8,100728.1,57260.9,23733.2,50876.6,113469.7,97931.5,47699.2,48011.3,0.0,672229.1,
649,0.5,12963.4,20105.3,20418.3,19942.6,19348.5,22439.7,21650.1,16355.4,21689.4,23107.5,21673.1,30332.2,21128.8,13846.2,23249.2,29254.1,44586.9,17333.4,21306.2,0.0,622797.9,
650,0.409,37812.8,39078.9,40905.5,38174.6,44151.0,50101.3,45936.3,35348.6,49059.1,57238.3,42501.1,127748.0,75543.4,33359.2,56614.9,127491.1,111608.4,44414.8,48619.9,0.0,754271.6,
651,0.5,22185.0,25143.4,30548.9,30468.8,27673.2,31687.9,29370.6,22463.4,35061.4,49062.8,18743.2,147949.7,87499.1,16149.5,47663.9,95907.6,137604.0,35797.5,31206.3,0.0,722743.9,
652,0.85,31434.2,35440.2,36696.3,26632.7,38710.5,42720.3,40196.8,30685.5,36030.9,26379.0,40786.5,120582.8,38353.3,29646.6,51358.8,142479.2,150742.3,27894.7,17925.7,0.0,692993.4,
653,0.215,6696.4,8586.6,15153.4,18656.7,9211.9,11165.9,16038.2,7998.7,19103.7,40988.6,15638.2,103236.4,56488.4,7404.5,27892.9,63244.3,119901.9,21996.9,28257.8,0.0,718836.6,
654,0.328,15180.5,17840.9,17607.4,19991.4,18450.1,20946.6,20226.4,17487.2,26459.5,42096.6,18360.3,113839.7,48193.4,14839.2,31978.6,64646.9,119358.4,24320.3,34460.9,0.0,561509.9,
655,0.228,9500.8,10848.4,14345.7,16299.0,14378.2,15660.1,15972.1,13503.4,21582.1,21057.7,14192.9,90443.5,31746.5,9291.8,24142.7,91621.7,57801.6,14492.6,21989.1,0.0,578835.5,
656,0.253,18473.7,23382.6,25636.6,32822.6,23097.5,25627.4,27286.8,21934.9,33018.2,73625.4,46796.7,161887.1,111389.8,25599.2,48946.7,132413.8,200596.6,38629.8,46631.1,0.0,576963.0,
657,0.291,7896.1,7848.9,9149.9,13505.0,5192.6,5924.5,7675.6,10921.2,11085.0,47458.0,12300.1,140982.9,88992.1,6729.9,46688.2,79595.5,184166.5,16876.1,22832.6,0.0,578792.1,
658,0.238,15116.0,14170.7,18078.3,16692.7,18581.6,23022.2,22093.4,18068.7,25027.4,35158.6,14396.3,55575.8,44017.2,13378.2,23408.9,33471.1,77838.2,20266.3,25685.9,0.0,550904.2,
659,0.295,25749.4,28722.2,38141.9,40271.1,30038.8,37256.6,43939.6,26905.5,37568.3,60329.9,28219.9,78864.7,56528.0,26185.6,44412.2,57414.8,44120.0,51149.5,62048.2,0.0,499246.0,
660,0.271,26597.5,44614.3,61964.0,71974.3,56968.9,76350.7,76177.0,43577.0,97916.7,83688.4,19453.9,108470.9,81163.9,17241.2,49546.9,80292.7,108438.6,78987.8,83121.3,0.0,531634.3,
661,0.298,16139.7,17299.9,16385.6,14639.8,20614.1,20687.2,18077.1,18837.5,25826.4,36999.8,16288.0,63251.3,59580.0,16190.5,20372.6,28925.4,109143.0,18866.5,20920.5,0.0,582636.0,
662,0.305,21069.0,32512.5,43915.8,45812.9,35369.9,40711.5,45779.6,19552.4,44336.6,24687.8,17960.3,47312.0,29374.7,14882.4,14550.9,37279.7,61297.8,39611.5,41319.8,0.0,465564.4,
663,0.486,23938.9,35593.4,37506.1,28203.2,35808.9,40482.2,40683.3,25497.9,47278.0,37891.1,21929.7,90531.1,52735.6,18977.6,32679.9,47225.7,122310.9,32908.1,22309.0,0.0,585936.2,
664,0.238,13457.0,19949.2,20856.7,21514.7,18437.2,21986.1,21424.3,15974.6,22382.8,49869.3,13570.7,125399.2,77633.1,11246.4,33503.1,63496.8,165853.9,30416.4,26539.4,0.0,586840.3,
665,0.225,17377.7,25373.4,32199.3,30426.7,29298.0,37035.5,37772.1,16123.5,40229.8,16377.3,6347.8,55102.9,39554.7,9534.5,10237.6,27993.0,75545.7,30592.8,18432.7,0.0,562816.1,
666,0.225,24879.8,20204.1,19968.2,20174.8,25881.5,24624.4,24397.6,22767.1,24101.7,45950.5,21688.7,88295.1,67711.4,26441.4,23204.6,77529.3,113975.7,21703.6,30728.7,0.0,567461.4,
667,0.295,17448.8,18903.3,17570.6,13748.0,24960.9,26411.8,20576.9,23802.7,29510.4,21376.7,25703.8,80915.3,33891.4,20598.3,44935.3,88059.6,88847.6,19702.8,13229.1,0.0,539324.2,
668,0.289,26812.2,27160.7,32327.7,32417.7,31178.0,36356.8,35323.5,31255.4,39979.9,27801.2,21436.4,85094.5,38471.0,21725.9,33889.8,66877.3,62697.8,35815.5,29985.0,0.0,531340.5,
669,0.535,48510.9,41124.5,42973.1,48780.7,35855.8,39616.4,41292.1,40316.4,41624.5,47832.1,50319.2,139008.1,72276.6,48531.2,55470.2,100430.3,118766.8,39160.9,45979.6,0.0,607086.1,
670,0.287,15054.5,20586.5,27198.1,31678.5,17822.6,26393.6,26436.9,16626.9,24827.2,34315.4,38204.2,108999.7,54191.4,17614.0,55600.8,144794.0,116269.9,27017.4,27330.9,0.0,535582.1,
671,0.69,30898.6,41469.6,43821.4,39696.2,48832.8,51973.8,49124.4,36989.3,56979.3,42552.5,34593.9,168299.9,83428.9,27587.3,51254.3,139282.3,130496.6,44807.2,37137.6,0.0,552036.9,
672,0.231,13596.5,22230.3,27924.7,20005.8,20905.0,27630.6,24053.3,10222.7,15352.8,38697.5,14006.0,133606.1,55095.6,10200.7,35257.3,93133.8,137571.9,14142.0,15954.8,0.0,526767.3,
673,0.369,17538.3,26619.8,25529.1,25144.9,21180.1,24176.5,23221.5,14590.1,16928.5,26185.5,23732.7,112777.6,39782.3,16077.0,34184.6,100123.7,105969.9,20564.5,26263.2,0.0,540485.7,
674,0.253,6000.7,15362.3,14265.3,16815.0,15792.5,21061.3,19974.7,13688.9,25346.6,56186.1,9913.2,116646.5,82529.6,6515.8,28078.0,65856.0,178134.3,24959.8,32176.4,0.0,590363.6,
675,0.216,26634.5,28994.4,24237.6,18674.0,34261.5,37494.1,31693.8,27730.7,43678.8,14827.6,14857.8,46093.6,26332.5,20851.5,20224.4,34044.1,57073.7,26273.2,16716.3,0.0,596935.5,
676,0.259,5107.2,6708.3,9934.2,14796.1,10429.6,12358.8,15149.2,15541.0,24196.4,57634.4,16245.1,172850.8,97881.1,7515.9,56300.7,131568.3,175128.8,25079.5,28250.1,0.0,577357.9,
677,0.213,19124.9,25423.4,28730.4,25066.9,26612.8,32001.7,32790.8,17923.6,31077.0,24364.5,18064.9,140492.7,59257.7,16310.8,19032.8,61179.9,180325.4,22973.7,19376.3,0.0,529187.2,
678,0.215,23306.2,28405.6,31138.8,34430.4,32537.8,36809.3,39240.6,37385.6,47326.9,44998.8,20823.9,121809.8,81498.3,29304.8,49006.7,53539.7,124555.3,44428.2,40619.1,0.0,604353.8,
679,0.356,18099.0,23716.7,27498.3,25349.3,28520.8,36299.4,33590.5,21369.1,39374.7,42303.7,26345.3,116226.8,46940.1,16298.6,29188.3,119469.5,106174.9,32521.1,35806.4,0.0,525285.4,
680,0.216,10086.8,17503.8,27051.4,22148.5,19251.9,27317.4,27374.5,14825.1,24769.0,30452.9,21109.3,96020.5,32677.2,10638.0,30209.1,95366.3,106771.8,23871.0,26696.4,0.0,596691.3,
681,0.292,18438.1,28331.7,28815.3,24831.9,32000.3,36562.1,34083.5,26262.6,42351.2,19635.2,8530.1,74393.1,21207.8,16645.0,26673.8,34040.6,21407.7,25597.6,23037.9,0.0,575377.9,
682,0.209,26705.2,36149.9,36352.7,24355.3,34733.4,41078.7,34877.9,24499.7,30508.0,31234.8,14037.6,151844.8,46879.1,17556.0,35419.3,87369.2,134044.3,18192.8,19710.9,0.0,592897.7,
