Time (s),Var Fp1,F7,Fp1,Fp2,F8,F3,Fz,F4,C3,Cz,P8,P7,Pz,P4,T3,P3,O1,O2,C4,T4,A2,ExG 1,notes
1,3.069,16825.5,37937.0,50560.2,50363.3,26738.0,35984.2,37235.9,19032.8,35533.1,37984.6,16880.5,36331.4,39301.9,14904.1,24009.9,31244.0,43488.3,37366.2,40977.5,0.0,30442.2,
2,10.674,8610.7,48952.3,19798.8,23679.1,14879.6,21324.9,22346.2,15940.0,24211.4,26588.4,11611.9,27583.8,23169.6,11332.4,17172.0,16122.9,23557.8,25743.4,29202.0,0.0,10857548.9,
3,6.877,22742.9,40108.8,25869.2,28312.4,27821.7,31164.4,26367.2,22770.9,24082.6,21783.4,11367.6,18365.2,21246.8,15757.3,15660.9,10601.7,16902.2,25420.4,27661.0,0.0,37183201.3,
4,1.717,17791.6,16736.1,12733.7,15445.4,15749.8,13888.4,15636.5,20755.3,20737.0,13747.4,26035.5,38020.0,14487.7,19395.7,29728.1,29773.0,14159.6,13144.5,14418.2,0.0,4456923.2,
5,2.111,9567.7,11327.4,14911.9,15894.0,10943.4,14408.8,13951.6,13705.3,14766.2,20521.0,9457.1,12358.0,12469.9,9162.7,11438.0,13181.4,13786.0,16114.2,22442.6,0.0,364469.5,
6,3.469,9447.8,14371.6,17041.0,18768.0,12386.2,14414.1,12930.6,11560.7,14646.4,18098.0,8970.2,13573.4,14494.7,7510.2,9392.9,8249.9,14246.0,11928.0,16010.6,0.0,352687.9,
7,12.992,14539.0,66135.4,34632.5,39042.3,21856.8,28242.2,27797.1,17769.9,28956.1,23494.8,14763.0,19557.2,21895.6,15445.8,17414.0,14381.2,14837.0,27271.9,28920.9,0.0,34771958.7,
8,4.335,94038.2,256601.5,217301.4,111207.4,57273.1,57680.6,74900.6,27824.1,30388.4,26607.9,12361.3,26512.8,30390.8,12640.7,18619.4,18679.7,28216.1,42361.9,46045.9,0.0,90708573.0,
9,0.855,67234.3,69483.7,91148.5,84317.2,57406.4,74650.2,71673.9,55860.0,60715.8,48761.8,49428.5,49334.1,51221.6,57311.6,54545.0,58437.7,43219.0,62246.6,60781.4,0.0,1731140.8,
10,0.96,19955.9,24718.2,24362.1,23126.8,23186.5,21335.9,22813.2,22616.0,31246.7,24443.4,17827.2,27889.0,29124.1,20646.5,20033.2,20440.5,26838.7,28488.5,26498.8,0.0,30828.1,
11,2.022,16900.7,19037.2,21736.8,19731.6,18605.8,19002.7,20135.6,16556.9,24259.3,24608.8,20087.6,34449.2,28255.1,19339.3,21038.5,26605.2,28746.6,23103.5,20089.3,0.0,26986.6,
12,0.387,6613.3,8984.4,8323.8,7298.1,10810.0,11435.0,9066.6,9312.6,11303.8,12657.4,10995.6,10736.2,11324.0,9986.3,11012.4,14403.3,9960.7,8260.0,13513.4,0.0,1624200.3,
13,9.655,12216.7,17891.3,16906.3,9350.8,12939.1,11970.8,11183.9,12649.8,13287.2,4927.2,7481.3,12317.2,10601.9,7991.1,10411.4,8943.9,8318.2,9766.1,7427.2,0.0,209496163.8,
14,0.57,10458.3,11683.3,11549.4,11574.9,11583.6,10123.8,10438.9,11142.3,13670.2,9887.9,7628.5,9367.1,10259.6,9257.7,8138.4,11231.4,8847.4,10608.9,9998.3,0.0,2764594.0,
15,0.334,12214.5,15068.0,15681.9,14959.7,13733.6,15997.1,14700.9,12154.3,21087.8,17559.5,12471.7,19770.4,19070.7,10863.1,14401.4,13885.4,16193.4,17382.8,20037.5,0.0,27412.6,
16,0.39,8059.4,7580.6,7894.7,6871.5,10704.9,11285.3,7897.8,6788.6,11545.6,9460.1,14174.5,13345.7,11491.3,11374.0,11204.3,17835.6,11207.7,7057.3,8696.1,0.0,22573.5,
17,0.34,5557.5,5580.2,6786.8,8828.3,7310.7,6583.4,8898.3,7634.6,12586.3,10731.9,9826.0,11581.2,11443.4,5032.6,7045.1,10855.8,13619.1,7636.4,8691.5,0.0,20159.9,
18,0.173,3670.9,5597.2,7229.0,6830.0,7337.9,7467.0,9431.1,8818.7,7437.9,4828.0,4921.7,10964.1,6679.2,5097.3,6893.8,6252.7,8746.6,7591.9,6968.1,0.0,12653.3,
19,0.192,8247.7,7174.8,8000.2,8828.8,8954.0,9282.4,6613.1,8685.0,9870.4,7883.7,7101.4,12267.6,7492.3,6969.6,6246.9,6289.8,7522.7,8767.1,9717.7,0.0,16894.9,
20,0.661,14224.9,18160.8,15562.9,13954.0,14200.4,16063.0,14559.6,11755.1,16258.4,14027.3,9016.5,19033.8,20462.8,12390.3,11574.3,10938.4,22129.8,16183.4,13765.5,0.0,38266.6,
21,41.071,57074.6,368302.3,196662.7,92597.6,63072.0,62648.3,51744.8,26791.7,27254.4,19468.9,16921.9,22840.3,27468.8,19096.9,17268.4,14349.7,21073.9,45052.7,21385.0,0.0,21515.8,
22,3.421,31694.5,40038.5,41216.3,53454.2,40674.5,39083.6,38547.9,33776.0,42526.6,34441.9,14978.2,23225.6,26355.8,19544.0,20868.9,16917.0,24635.7,35515.0,36134.0,0.0,13925.7,
23,0.799,23059.5,24831.8,28155.7,83609.9,29492.0,27722.5,31117.0,24747.4,26533.3,18178.5,26409.7,14345.3,20620.1,17741.7,20658.3,22952.1,17137.3,30367.7,20830.8,0.0,42891.9,
24,0.309,15250.3,20161.8,25898.8,24267.0,21054.1,21543.7,23219.9,19197.0,27767.6,36528.8,10057.9,28809.1,33537.6,13265.4,15616.2,17678.9,36435.2,27788.2,34732.2,0.0,20790.0,
25,0.724,8126.2,13951.8,14684.6,10987.8,11479.3,11664.4,9949.9,8688.6,10776.3,10307.1,10445.5,10022.9,12128.9,8530.4,9603.1,12165.7,15349.4,9632.5,14755.0,0.0,135077.6,
26,0.632,26521.1,29204.4,30532.1,24055.7,26147.8,25408.1,24787.4,26092.0,23325.1,24966.9,13551.2,19919.8,24092.8,17585.8,18563.5,16160.5,20059.2,24147.3,21252.3,0.0,39139.7,
27,0.844,19386.9,29301.6,31102.6,26884.7,27623.6,30243.7,29092.1,16199.5,28672.2,17231.7,8491.3,20759.9,20035.0,11290.4,9621.1,8367.5,22274.0,23287.0,22090.7,0.0,38449.4,
28,8.4,13096.7,22119.6,22100.0,17380.9,15961.2,18002.3,18783.8,20056.3,24740.9,19166.7,14244.4,23631.7,21401.3,13851.4,18172.3,21043.9,16373.6,18106.0,18725.5,0.0,11248467.5,
29,0.47,11822.2,10688.3,13872.9,14402.7,11612.4,12115.1,11513.9,12418.8,14954.6,13557.6,12775.1,15761.9,11930.7,11039.9,12745.0,12585.1,10263.3,11929.4,11483.2,0.0,9712109.7,
30,0.408,13815.9,14604.5,15750.3,18613.4,14434.7,17134.3,18851.4,17026.5,19591.1,21222.4,13447.2,19422.9,18601.1,14089.7,19393.9,19493.8,25469.6,19318.3,17680.6,0.0,34531.0,
31,0.206,14327.3,19314.1,19452.5,17410.4,14826.7,16467.6,16576.0,14342.6,13063.4,18874.7,15388.2,21709.9,17802.8,13207.3,16869.7,19922.1,17973.6,14471.8,20699.9,0.0,41698.9,
32,39.24,26059.1,190340.0,146849.1,25430.9,40284.0,46262.8,34718.2,15808.2,16989.4,17539.5,7308.1,18843.0,14903.2,9869.4,11138.2,11747.9,20307.6,13763.6,14343.9,0.0,21418.8,
33,9.808,21332.1,47731.3,33796.0,18670.8,22229.0,30704.5,23067.6,71713.0,23156.5,14750.6,13932.5,21068.0,19061.1,19897.8,15798.3,10700.1,13092.7,19295.1,15172.9,0.0,21135.3,
34,0.335,9185.0,7115.5,6145.2,5664.7,5720.0,4340.5,4544.5,15575.7,7708.2,11087.2,5387.6,17263.0,11912.4,7823.1,9475.7,10484.3,16613.5,7320.0,8381.7,0.0,16251.1,
35,0.371,7062.7,6965.6,10058.0,10154.2,7853.5,11695.9,11923.0,8019.4,15993.1,11862.4,6711.8,23207.0,16553.0,6729.5,9225.1,15933.1,23791.2,13091.2,10506.4,0.0,19183.6,
36,0.298,6858.5,7728.9,9240.6,14770.1,7169.2,8817.9,9756.2,7832.7,11689.7,14552.4,5632.3,12751.1,15384.9,5540.2,9939.1,12871.4,18454.0,13375.7,12692.5,0.0,22566.5,
37,0.529,14322.4,16343.2,14853.4,16937.7,12039.5,12025.3,13259.7,15140.7,12179.6,27356.7,17889.8,15307.3,22851.5,15317.2,18163.8,19755.0,17594.3,20556.8,25762.9,0.0,43291.1,
38,0.441,25647.8,29988.9,32396.2,26616.4,26597.7,27697.2,26956.4,24564.1,25856.8,27791.8,17579.2,15451.7,22427.9,20624.4,20164.6,17541.9,22717.7,21317.6,27580.5,0.0,25217.0,
39,0.449,14607.1,17271.1,17843.8,16137.6,13198.8,13225.9,14138.2,11869.3,9821.2,12030.4,11213.9,8817.7,11226.4,10767.2,12253.0,8991.2,10758.5,11157.4,12823.5,0.0,18523.7,
40,0.595,5300.6,6957.9,13342.2,15023.1,10423.3,12711.2,15542.9,11710.2,15903.4,22579.5,15176.9,24307.0,27279.8,6852.4,12993.2,20956.4,33493.0,19030.3,16610.4,0.0,17218.4,
41,1.206,12220.0,13760.0,14547.2,12352.5,12270.4,12521.5,12867.6,11833.3,12179.7,12834.3,13487.2,18045.8,14710.3,10579.6,11271.7,15082.6,17465.5,11951.1,11887.5,0.0,33330.2,
42,0.188,10584.4,13818.0,14511.7,16269.9,12559.7,14807.1,13762.4,14610.8,17579.5,24926.5,12856.0,35823.1,31361.2,11366.0,19804.9,27620.5,38788.5,20301.9,18736.2,0.0,28426.4,
43,37.321,106644.1,446630.5,339445.8,89634.6,129939.7,132919.3,110684.4,59681.1,60622.2,38885.9,40295.2,44702.2,41265.8,51786.6,48940.1,43639.9,41303.4,52209.6,40350.6,0.0,22587.5,
44,0.775,20121.3,29313.1,21558.9,21156.1,20320.8,17901.8,18759.4,15048.7,16852.4,10796.8,10176.4,11922.2,11954.0,11035.1,13366.1,9804.4,7640.2,17303.4,13872.9,0.0,20749.6,
45,1.729,12967.4,18313.2,20513.2,18993.5,15596.4,19997.4,19111.4,19850.1,21918.7,14833.9,8315.6,23577.1,18309.9,9287.8,11472.2,13283.1,22735.2,17569.1,14945.6,0.0,29365.1,
46,0.44,21884.7,25722.7,22683.9,24238.4,26374.2,24844.0,24435.8,25610.6,29291.4,21923.6,11798.5,24243.3,23379.7,18300.8,19656.9,18242.7,20565.1,25908.1,25237.7,0.0,108637.8,
47,0.486,16482.4,23955.1,23595.3,21066.0,19850.1,25484.1,23634.1,13692.6,22831.9,26618.6,11415.4,22322.3,23162.3,11656.3,13974.0,16733.5,21794.2,22808.1,27551.9,0.0,32068.0,
48,0.477,15019.0,19496.9,22328.5,19949.3,21197.1,17236.3,21554.1,17380.9,27703.1,32722.6,17800.0,33256.2,35053.9,13812.2,22921.2,28127.6,41289.9,25486.9,24139.5,0.0,37492.7,
49,0.93,8147.0,7916.5,10514.6,9823.7,8198.8,10257.6,11016.5,9906.9,8717.2,8934.1,13439.8,11763.8,7857.0,9728.6,11052.6,11484.8,7975.3,9548.8,8787.1,0.0,34599.1,
50,0.525,22026.5,25144.8,26428.8,25302.6,23486.6,24264.2,25546.6,25763.2,37184.0,34515.4,24233.6,73544.6,43776.7,22525.0,37743.8,56829.1,61019.5,27078.1,29011.4,0.0,25586.9,
51,0.512,8460.1,9257.9,10207.1,9664.0,8255.0,12184.1,14290.9,12451.8,12122.6,15975.1,12825.8,22557.4,15188.7,8631.0,15018.0,24894.3,33601.5,11417.4,10778.4,0.0,22601.9,
52,1.265,16692.5,25893.4,30252.6,26759.5,20738.5,24210.2,26610.4,85192.6,27859.1,18998.7,10689.5,19541.2,21186.8,12610.7,14108.4,17531.4,18759.6,22051.8,21221.4,0.0,27048.0,
53,0.319,9864.4,12551.7,17470.1,23667.3,10517.6,14177.1,18389.9,10010.2,15461.4,25564.3,11093.3,18177.8,22824.6,7622.4,11818.4,10873.5,21612.5,22535.3,31248.5,0.0,23319.4,
54,0.29,11685.4,12573.6,12971.2,18767.4,10843.5,10839.8,11783.9,7017.4,10272.0,18192.5,9607.3,10238.5,13178.6,10178.2,8235.2,13629.4,12230.2,13282.5,22486.2,0.0,31022.3,
55,0.854,10395.1,11258.6,14073.9,15254.6,13366.2,13978.4,16578.9,10758.5,20661.4,35136.8,10544.9,31948.4,39110.8,10101.2,16890.0,17652.4,39879.2,24478.1,21759.3,0.0,24564.6,
56,0.63,12146.8,14465.2,25746.5,35748.2,21343.3,26471.5,35085.5,22111.0,45450.8,32746.7,17126.9,77621.0,64036.4,11718.2,33266.4,35788.9,44009.5,44822.7,32141.3,0.0,26315.8,
57,1.32,11774.2,12681.5,15224.2,16561.9,17249.9,18015.4,15872.8,13831.0,14122.5,10133.7,10992.6,21650.3,8903.7,9545.3,14769.1,21685.8,17263.1,13428.9,14452.6,0.0,26229.3,
58,0.2,11153.7,14556.2,19324.5,19934.6,16140.5,17297.9,22601.7,17872.7,20288.7,28581.5,13695.8,33159.7,39739.4,11077.2,17546.9,18291.7,53410.8,23777.9,22110.2,0.0,22742.8,
59,0.239,7514.6,9991.4,12631.4,13955.4,14210.4,10654.5,15286.4,11621.0,14732.1,32414.8,10673.2,32472.1,50767.8,7767.5,12327.3,21114.8,67103.3,20255.9,21044.6,0.0,19233.6,
60,0.229,11631.3,15246.5,17251.6,18365.9,15596.4,18954.4,18422.0,11558.2,21616.6,21063.8,10180.3,22914.9,22184.1,11155.7,13381.0,16044.2,18784.6,15833.8,19938.6,0.0,27990.7,
61,1.216,8836.3,15133.9,18779.8,19078.0,16121.5,18722.5,17773.8,9808.4,19128.5,25466.1,6985.3,19855.4,38173.5,5808.0,5903.2,12738.9,44647.8,21074.7,21354.7,0.0,18197.8,
62,0.222,8068.2,9924.3,15022.3,12572.3,11260.8,14125.3,15892.3,7745.7,12605.7,26055.2,18910.2,89797.8,62180.3,8609.4,22690.6,67634.9,90715.0,15776.0,12659.8,0.0,24323.8,
63,0.679,20283.1,24616.3,29329.3,22908.4,23891.0,25716.9,26818.4,20530.4,29077.9,16583.6,15015.5,28303.6,28443.9,17513.5,16423.7,10215.1,17904.0,26505.8,17906.8,0.0,63704.4,
64,0.614,18057.8,22722.2,21636.8,17082.3,21331.6,21732.3,20765.2,15901.0,21712.7,23022.5,17105.8,55859.4,39845.4,15862.2,24101.1,34338.5,39651.0,19949.8,22955.2,0.0,36979.7,
65,0.695,12210.8,19888.4,23000.7,14679.8,14566.3,17350.2,18635.7,9892.2,12366.3,13646.1,4050.4,10381.4,15926.9,6991.6,9122.4,8458.7,16656.9,13693.2,11944.3,0.0,10612.6,
66,1.164,21830.8,26109.6,30252.9,30977.6,28061.3,31505.1,26278.5,22834.4,28249.4,20180.7,8541.5,16478.2,21689.7,12344.2,10375.9,7995.6,13425.5,25916.0,25948.9,0.0,36327.4,
67,0.187,9467.8,7604.0,7788.8,7273.8,11422.3,10717.3,9699.5,13838.6,12378.5,13489.7,17925.5,14955.5,14315.6,11833.4,16011.5,15683.8,17136.7,11445.4,10518.4,0.0,24148.3,
68,0.201,14228.6,15380.9,14706.2,15474.8,16806.4,17483.7,16660.1,13354.9,18069.1,18975.7,15010.2,15862.2,16590.9,9394.1,14619.8,19166.8,20169.4,18021.1,14944.8,0.0,37338.9,
69,0.403,6025.3,8907.8,11665.5,11855.7,8386.5,12325.7,13030.4,7262.2,11319.0,15616.7,4854.5,5696.3,13972.6,4804.5,6014.6,7868.1,12147.1,14267.3,14494.8,0.0,19479.1,
70,0.33,10604.8,8454.5,9928.2,17564.9,11818.8,14440.2,14195.6,12963.1,20181.6,24298.7,13559.8,17722.0,26221.7,8496.2,12149.8,10951.2,14999.9,24593.3,28948.7,0.0,11583.3,
71,0.709,9307.8,13012.6,20004.2,18127.0,16004.7,22664.6,24403.2,13137.7,22197.3,15647.2,9518.3,12336.9,12168.1,9515.8,11712.3,12084.1,14099.4,19076.8,17991.9,0.0,26208.2,
72,0.602,11383.7,10390.5,17992.8,24240.1,9208.5,13558.5,14597.5,6950.5,19673.7,16356.1,9361.7,11256.8,13726.1,6612.3,6663.8,9771.5,13796.0,15942.6,21404.3,0.0,22180.2,
73,8.325,24377.0,127922.6,68461.4,14695.2,29147.1,26093.6,25011.4,15881.8,20938.7,17166.3,13438.4,18419.7,18239.6,8169.3,13548.7,11774.6,14947.7,19219.2,12793.6,0.0,107275038.1,
74,30.475,12312.1,33833.8,49719.1,30006.8,17707.9,23341.8,25438.3,12935.6,22878.8,27037.1,15373.1,22399.9,25948.0,11023.7,15822.3,16710.7,21700.1,24919.9,29942.8,0.0,1478383815.7,
75,14.431,10909.3,19931.0,13842.2,15161.0,14168.6,15133.7,13117.0,11851.3,13588.6,10558.6,8146.4,12224.4,12942.0,7112.3,11105.0,7858.8,13234.0,12527.9,14076.4,0.0,202099038.2,
76,15.723,16224.4,41571.6,40730.1,34302.2,20996.4,25554.6,28395.5,10642.1,15548.8,17722.4,15851.3,17156.4,16273.9,8340.8,12376.8,9341.1,13681.7,18772.1,20869.4,0.0,6747485.7,
77,4.125,13103.6,16620.7,43695.7,30373.0,10844.2,10817.5,16741.6,5890.9,9716.4,8898.9,3354.8,14235.5,9986.2,5151.7,5156.4,6924.1,11397.3,14850.6,15079.7,0.0,14998.2,
78,0.544,5011.4,14077.8,66045.1,13575.5,11745.4,15076.7,13483.9,8110.0,19577.8,7368.5,7948.8,18475.1,16597.5,4018.3,11019.5,11052.0,12190.3,25022.1,7615.7,0.0,18962.7,
79,0.322,10711.9,14508.7,15134.5,21435.9,14736.1,12594.9,13583.4,15715.3,18050.0,21683.3,15750.3,20784.9,24100.1,15761.9,12990.5,15274.0,25890.2,21757.0,15529.7,0.0,35561.6,
80,0.294,10938.4,12065.4,12873.6,14591.2,14208.3,15091.1,15624.1,17870.9,16174.5,19115.5,13495.7,12483.1,17528.3,10576.9,14046.9,12425.2,11324.5,17706.7,13309.4,0.0,24362.6,
81,2.038,20622.4,30359.3,33306.4,31867.0,22191.6,23632.4,24176.5,14219.8,18118.2,16810.1,9981.8,13240.5,15294.3,11252.4,13549.6,16469.4,14035.7,19902.0,24272.4,0.0,26497.8,
82,0.459,12344.5,15230.5,16129.0,11965.1,13962.2,13254.9,13745.2,17259.1,13774.7,18040.3,10529.1,20052.7,17202.6,12413.8,11690.7,17039.7,18593.1,15460.0,19584.7,0.0,17284.3,
83,0.369,14817.3,21302.2,27174.9,29202.0,19698.3,23778.6,27176.3,20787.6,27361.7,24001.2,21967.8,28705.3,29647.9,12976.3,21596.0,20351.9,30253.1,31725.8,25141.3,0.0,34575.4,
84,1.168,18396.7,23521.7,31566.5,48819.4,21010.0,28321.7,35779.7,23144.7,35901.0,66452.6,17605.9,46383.6,63682.1,16613.4,25434.1,24319.5,51670.0,51826.1,69232.3,0.0,38997.8,
85,0.285,13503.8,18471.6,22525.9,25837.4,18441.8,19952.3,21046.9,14784.1,19073.4,26329.1,16956.2,21476.5,29683.2,16706.9,19367.1,18611.9,29043.1,21682.3,33384.0,0.0,38252.5,
86,0.24,13812.6,15928.6,20091.3,22459.4,17205.7,17544.6,18564.7,10876.8,16906.1,13724.6,7612.5,12508.0,10423.7,9443.1,11841.5,9425.8,10801.5,16432.0,18896.7,0.0,18935.2,
87,0.52,33021.0,41634.7,37964.2,37893.1,39989.4,42083.9,40646.2,36244.3,36810.3,48641.6,23430.2,29419.7,43011.8,28113.8,29657.8,22227.8,32099.3,41085.9,42759.3,0.0,27634.9,
88,0.332,13941.8,13797.8,11372.3,10787.0,14197.7,16949.0,14228.4,15766.9,19617.1,17424.9,16296.1,28518.1,22810.1,14582.7,22333.2,27909.8,22533.1,18748.1,13862.5,0.0,38836.1,
89,0.208,8328.8,11492.1,12788.1,15432.0,9984.3,13027.0,13963.7,10606.1,13344.4,25845.8,9436.5,14694.9,22389.4,9239.9,9680.8,18819.4,16596.6,17599.0,23363.8,0.0,33540.4,
90,0.167,9463.4,8625.7,8793.0,12452.7,9057.2,8066.7,9889.0,10933.9,10949.1,42902.4,14108.4,24494.9,45594.0,10062.6,15109.2,18896.6,42495.5,19963.6,23224.3,0.0,26477.8,
91,0.207,18083.4,16429.8,17185.5,15555.3,15697.8,16932.9,18452.3,12617.3,20719.1,32924.8,12009.8,27811.4,29930.1,13582.6,16073.4,16646.1,35865.1,18950.5,26018.8,0.0,35899.2,
92,0.209,14587.9,17685.5,22641.9,28093.9,19404.8,19214.5,24984.5,20714.0,28163.1,32665.7,16391.2,55402.4,38310.2,16824.1,23474.3,34626.2,42316.6,31117.7,24230.5,0.0,36413.4,
93,0.222,13169.4,13537.6,15248.9,19451.6,16918.6,16400.9,15519.8,18229.5,26579.8,37001.8,12886.2,67265.2,49228.3,12353.1,28500.7,38951.3,55975.3,25007.3,33902.0,0.0,25104.2,
94,0.259,13750.1,15576.0,18079.6,20487.9,14988.6,16678.0,17069.8,13112.9,15073.3,26776.2,11432.3,16013.7,26072.7,14610.2,11902.9,24284.9,33017.4,21532.8,24974.5,0.0,20459.6,
95,0.18,6853.8,9208.0,9212.4,7707.0,9115.5,8293.1,7662.4,8746.8,14179.4,22949.3,14014.0,20213.9,20015.5,8151.4,15669.5,21071.6,24692.9,10952.0,20618.0,0.0,22889.2,
96,0.219,6223.3,8126.5,8500.8,8940.6,8267.6,7942.2,8833.1,8664.3,10674.5,17610.2,9916.0,12347.4,12401.6,9319.0,9462.4,9364.4,12898.5,8882.5,13576.5,0.0,26322.4,
97,0.205,7657.7,6904.5,7236.9,7136.6,8614.2,10198.5,9289.4,10916.1,10447.4,15255.8,9310.7,12771.4,9964.1,6109.2,11737.7,18901.9,14034.2,7197.4,11545.3,0.0,19881.9,
98,0.225,15797.5,14948.3,15190.2,14630.4,17660.6,16875.6,18080.5,16850.3,17686.1,15274.1,16254.8,13161.0,14497.8,17482.3,17954.5,17693.4,15527.7,13995.1,16353.0,0.0,32339.5,
99,0.287,5586.5,6914.0,7738.6,7954.8,7904.2,9423.6,9902.5,10137.4,13757.0,11685.6,15549.7,12792.7,10849.3,10343.9,12205.4,15750.5,11907.4,11318.4,11535.8,0.0,23876.5,
100,0.195,5401.2,6855.6,9008.9,9353.3,6502.8,7526.2,9508.7,9446.1,12002.7,17981.8,8399.4,37096.6,23966.2,7158.1,17733.0,29584.7,25762.2,10655.0,15276.1,0.0,12477.0,
101,0.174,4213.0,4675.4,5586.4,4870.8,4759.4,6057.3,6008.4,6037.8,7466.7,7841.0,7464.9,17644.7,11090.1,5053.8,10832.7,13393.2,11163.5,8448.9,7090.7,0.0,14617.9,
102,0.227,14486.5,16834.1,15531.0,14819.6,18557.7,18687.8,16157.0,15132.1,23288.1,19075.2,16748.2,21818.8,17423.1,13196.1,20623.5,16085.1,21917.4,16114.6,12615.8,0.0,41629.8,
103,0.437,10775.3,13938.4,14933.2,15057.5,15467.7,16585.0,14621.9,15246.2,21389.6,15236.2,15075.9,31944.4,18237.6,10677.9,23169.8,25069.7,22929.3,15938.2,14944.6,0.0,30163.2,
104,0.3,12806.3,13053.4,14495.5,21811.5,14861.3,15664.9,17603.4,11294.3,20671.1,31868.2,8022.2,20055.8,24920.4,10460.4,10722.8,11397.0,29969.9,19261.5,32381.7,0.0,40253.6,
105,0.235,18618.0,18299.3,18478.0,19162.7,16897.9,18021.5,16493.6,17347.8,21302.3,20135.7,15395.5,26477.5,23920.2,13818.7,19586.9,19089.4,18422.1,23402.6,21828.8,0.0,12414.2,
106,0.71,14383.3,17535.7,19195.6,18179.2,22647.1,22522.1,21154.9,20080.9,28202.2,15685.6,11705.4,20073.3,15537.3,13352.7,14836.8,12402.0,12520.8,16125.8,19581.6,0.0,26241.2,
107,0.72,7934.8,8419.2,9221.2,9254.0,9140.0,7845.4,8387.4,7418.2,9124.9,14360.7,8728.7,15938.2,14118.2,9380.8,10559.9,10168.4,16202.6,10408.2,11143.6,0.0,16554.9,
108,22.305,33735.0,110235.3,81764.0,31417.2,33082.5,41902.2,34990.5,19432.0,24506.3,17868.0,13915.1,17928.9,22170.5,20312.9,16737.7,17200.2,15630.8,26366.2,31956.3,0.0,48043.8,
109,0.666,14203.5,21891.4,17447.4,12928.3,21777.6,18291.6,17643.1,18301.4,20855.1,11952.1,13178.1,11506.3,12322.6,14121.6,16102.0,10693.8,9970.2,19682.2,11989.6,0.0,25236.9,
110,0.315,13229.5,8898.3,12088.0,15530.2,7135.2,8962.6,9645.1,15171.4,10714.0,11588.4,12453.9,11022.8,12304.1,15565.4,11098.5,7489.6,9416.6,12296.4,15951.1,0.0,41281.9,
111,0.359,12835.7,18012.0,21583.1,23937.8,21267.5,26141.7,27046.9,18094.2,30375.8,30728.3,13992.8,31598.0,34237.0,13305.4,21198.0,24045.2,38807.5,28571.7,30057.1,0.0,30258.8,
112,0.287,9572.8,8735.0,12734.0,17350.1,9776.0,11343.3,13022.2,11195.6,13773.1,16010.5,11244.3,13314.9,13932.5,10726.9,12779.6,11895.6,11908.8,14969.1,24407.3,0.0,30423.8,
113,0.26,14959.6,18453.8,15610.4,12392.8,18273.1,17983.8,16804.1,18978.7,21535.3,15293.1,16423.0,20578.5,14065.0,13827.3,17959.1,21208.6,20157.7,14446.1,12417.0,0.0,37389.8,
114,0.391,12790.0,11499.2,11352.6,12579.5,10742.4,9958.1,11390.1,11195.7,8458.3,14232.0,13753.1,14783.4,14024.0,14433.2,14425.1,15035.3,16710.9,12613.2,16537.5,0.0,20765.8,
115,0.292,13922.2,19034.8,23068.3,18679.0,18922.1,22599.0,21355.3,19467.1,25862.0,20533.9,18817.4,27873.3,23222.7,14788.1,22244.3,25185.3,20565.1,22706.0,18210.2,0.0,36060.8,
116,0.272,13997.4,12093.7,11999.8,13771.6,13544.2,11684.8,13428.7,18528.6,16197.2,16398.7,21305.9,41006.4,17462.5,20086.2,20963.3,28646.2,24266.0,13303.4,19124.8,0.0,31303.2,
117,0.348,26518.0,34465.0,33153.7,23640.1,28538.0,28244.2,29056.8,23183.0,29956.5,22636.2,32305.3,71299.8,36053.1,29081.2,47158.9,50088.8,29473.6,25001.5,20540.3,0.0,39288.6,
118,0.281,10528.6,11117.0,11911.2,10429.5,13721.4,14115.3,11054.5,13868.7,20987.7,11958.8,4785.7,33792.4,14759.5,6432.7,12648.6,9241.1,9974.1,10341.5,16784.7,0.0,20257.7,
119,0.257,7678.5,6774.6,6957.4,9344.6,7565.9,7364.2,7342.7,6976.8,7106.6,14164.0,11784.6,8504.1,11212.1,9613.1,11761.7,9787.1,12408.1,9077.7,14006.3,0.0,23463.1,
120,0.283,9572.9,10765.6,11996.4,11655.5,13478.3,18697.4,16995.9,11206.6,15178.3,14658.3,10234.7,10005.9,14807.4,7962.2,9576.0,7744.5,14900.3,13300.9,14293.1,0.0,20551.9,
121,0.329,13597.6,18898.8,20878.7,19430.4,18929.9,22845.9,21124.6,18031.8,27662.6,23855.8,13677.0,17810.5,25153.1,10779.0,16561.1,14109.0,16415.9,29673.0,25327.0,0.0,43103.0,
122,0.407,19872.6,20327.4,24073.4,25071.1,23328.0,24385.1,22882.9,22603.4,23305.5,29826.2,17661.6,57408.8,37940.8,17663.1,25320.5,59586.1,36053.1,31224.3,26262.4,0.0,34236.8,
123,0.305,10333.4,12960.5,14318.2,14590.2,11904.7,13088.9,12359.7,7727.6,14952.7,24199.7,15392.0,47475.5,33817.4,10190.8,14508.9,23687.0,29603.3,19780.0,20666.7,0.0,24682.0,
124,0.262,9532.8,13168.2,16845.7,23062.3,15687.5,19599.1,20930.5,20271.7,24726.2,29837.0,9319.7,34065.0,23925.3,10925.5,19674.7,18739.3,19496.2,21918.4,34528.8,0.0,20873.3,
125,0.256,13402.5,13327.1,16651.2,16545.7,18355.1,20998.6,21497.3,16751.8,27434.9,34983.0,12489.5,38604.8,44926.7,10905.1,16377.2,18506.8,33161.4,27877.0,28893.8,0.0,34423.3,
126,0.206,5351.5,7427.6,6751.2,8462.0,6981.4,7773.8,7693.9,6472.5,7639.8,12587.4,11555.1,21509.3,13621.3,6722.3,8022.0,15284.3,8773.5,8430.1,19684.7,0.0,16213.6,
127,0.372,25323.4,28146.5,24736.2,21404.7,28556.9,27776.7,24716.0,24540.8,31400.9,32255.4,17864.8,39436.9,24348.2,22897.3,16958.7,34347.9,16586.9,27474.0,26936.8,0.0,24388.2,
128,0.251,15472.2,19059.3,18731.8,18362.8,20695.9,24237.2,20816.0,20132.5,30357.4,21059.4,9055.7,35275.2,29852.4,11367.2,18289.7,25115.5,24901.0,23599.1,19360.1,0.0,31478.3,
129,0.2,11659.6,10161.1,8790.7,15467.9,11370.6,13796.4,12023.6,10193.8,14173.9,31900.8,7436.4,12418.6,24281.2,9291.6,11394.1,15899.3,19601.5,19897.2,26961.2,0.0,31283.9,
130,0.261,15388.1,20034.7,17955.5,15514.0,21461.7,26725.4,21758.1,24262.4,29675.2,20391.6,17012.5,39039.1,17416.1,15771.9,26353.4,24437.5,36121.5,17090.6,14732.2,0.0,25926.1,
131,0.296,15583.3,20715.4,26996.5,23722.4,21306.7,25647.2,26491.4,19939.1,25708.4,14772.8,11062.0,52621.5,26977.6,12541.7,19771.2,37000.5,24216.1,24410.3,21962.9,0.0,23368.6,
132,0.264,7516.3,8010.5,10525.8,12075.7,11394.6,12749.6,12237.9,10012.6,11662.0,15497.1,12032.2,20840.0,15303.3,9624.4,12873.7,11145.4,19898.4,10917.3,12875.9,0.0,29537.1,
133,0.269,17302.7,17115.0,19380.1,20712.6,19315.9,22841.8,19989.9,19210.2,22285.4,27389.3,15950.8,42169.0,31352.5,16558.6,15140.3,29669.8,32309.0,18793.7,22901.5,0.0,44373.0,
134,0.256,9256.5,13097.5,14655.6,12937.1,16652.3,19421.3,17046.1,11313.2,23980.6,40832.2,27338.9,142927.1,66524.5,7689.6,43584.1,150941.0,130473.4,16227.1,17462.1,0.0,22910.5,
135,0.252,15751.8,23709.9,24055.6,21804.8,26468.6,31110.8,26965.4,21355.4,42785.1,28945.6,24350.4,246849.7,89423.5,13086.9,62331.5,153906.2,159649.4,30104.7,21723.7,0.0,14766.4,
136,0.237,14901.5,16521.2,26063.6,30998.7,22075.9,27953.1,32451.0,16490.4,40260.8,33775.3,19973.4,182434.7,76283.5,10836.9,44457.4,90529.6,98990.9,38621.6,33517.0,0.0,27084.2,
137,0.326,35559.6,36715.0,33133.3,25112.5,34722.5,36026.8,31560.6,28382.5,30473.9,36928.6,21544.5,93880.8,32091.3,25512.3,30528.4,74280.3,84475.6,22112.5,22417.8,0.0,37471.0,
138,0.276,18364.4,19359.9,25196.7,25801.0,21830.0,26157.7,28207.9,15168.3,26883.8,39489.7,16866.8,56817.4,58089.0,17858.8,22637.1,25339.0,50358.4,38798.3,34960.4,0.0,38781.9,
139,0.251,19623.6,19731.6,21082.8,21332.8,20162.9,21003.8,23292.6,19606.9,30559.0,23427.5,17234.1,36690.3,31784.8,16816.6,23362.5,24042.3,27678.7,23566.7,28521.9,0.0,37962.7,
140,0.278,18776.4,24227.8,32930.3,32262.9,25925.7,33015.8,32012.4,26536.5,30253.4,36182.1,28680.2,26135.3,34419.4,20812.8,28382.5,26893.9,31503.7,33438.0,41690.5,0.0,29399.5,
141,0.402,23237.1,25920.7,25888.2,22650.7,26331.2,24928.3,23658.0,23240.3,27368.7,27500.7,22717.8,22690.8,25324.6,21170.9,22277.6,24815.1,26078.8,25249.6,30642.7,0.0,40244.8,
142,0.231,6002.2,6869.3,7134.0,6720.3,9276.4,7949.3,7790.3,8921.0,13045.3,10431.8,9350.3,12957.0,12945.8,5339.0,10873.8,8886.0,13073.2,9309.1,11469.1,0.0,15366.1,Its become more 3D - a lot of kind of light blueish gray - flexy stuff in the 3D field around the dot - around the space - coming very fine silky flows and swirls and spindles.
143,0.377,6988.6,8685.9,9893.8,10379.9,8568.6,8809.7,8691.1,10459.1,11436.5,9811.8,7781.7,13465.1,10356.7,7642.2,11653.0,10551.8,11538.7,8854.3,10397.0,0.0,14534.2,
144,0.537,12689.4,17904.7,20635.9,15760.9,16795.8,17454.5,17465.9,13389.5,17174.1,14724.9,10133.0,17531.8,15459.7,11684.0,12882.4,15102.9,14604.9,15538.6,18361.0,0.0,28624.5,
145,0.561,12935.4,15992.3,12821.4,11533.5,16764.1,16146.7,14755.6,16949.6,14923.8,7524.6,8881.3,11132.0,9938.3,12814.8,15270.1,10175.8,6625.0,12982.7,10964.9,0.0,28724.1,
146,0.266,9592.5,13060.6,14574.4,12136.6,14023.4,14501.3,14813.2,12968.4,17587.0,10813.8,9972.4,21292.2,16235.7,10216.7,15669.1,12495.1,12446.5,13337.1,12318.9,0.0,19840.6,
147,0.314,7924.8,9065.2,11329.3,10220.1,9889.8,11860.5,11597.5,6873.1,13008.8,7745.6,9925.9,14918.5,11017.3,8610.7,8095.5,10810.5,8780.5,11027.3,9714.2,0.0,20551.0,
148,0.431,23321.4,22561.9,19151.1,13949.7,23080.9,22752.0,20033.1,19073.3,23667.5,17237.6,15099.5,22102.6,20644.5,17071.7,19353.1,19397.1,28587.5,17557.3,14378.8,0.0,29359.9,
149,0.613,10400.9,16136.6,16380.3,13609.8,13091.9,15383.0,14133.8,11941.2,15797.7,12372.9,5871.7,18022.3,15076.9,8302.0,9392.7,12976.2,18565.7,13687.2,11520.4,0.0,24357.6,
150,0.637,20424.9,26451.8,28876.3,26481.9,19794.0,22932.4,23461.4,21234.6,20983.8,16658.8,14823.4,11112.0,17097.7,13272.7,16277.9,13405.6,14104.6,18808.7,21331.9,0.0,31256.7,
151,0.832,7697.3,7932.9,10549.8,12280.7,7373.2,8305.9,9223.4,8011.8,9476.9,11247.4,10382.9,15132.3,11222.2,7907.3,15817.5,11740.2,8284.1,10490.8,16092.7,0.0,24089.8,
152,0.73,20976.0,24127.9,21823.9,22019.6,22685.8,21839.8,22461.7,23374.3,22527.2,16609.6,17445.4,30815.9,22195.1,19659.8,23181.0,23695.4,18253.0,18741.0,17989.8,0.0,15760.2,
153,0.524,16099.6,16379.8,18733.8,17878.0,17104.3,18362.7,18413.0,15728.2,18727.4,16374.0,12994.7,26742.9,17046.9,15520.0,15912.2,18998.2,16889.5,18537.1,21047.0,0.0,31797.7,
154,0.908,15654.7,21828.6,28890.5,25558.4,20815.7,22646.8,26355.8,18785.9,29276.4,32710.5,17221.4,41365.9,35948.3,14502.0,26694.2,26582.9,32183.0,30174.9,31427.7,0.0,32745.8,
155,1.35,11772.5,11317.9,14153.1,22133.9,13497.8,13422.9,14398.6,15082.4,16527.0,14844.5,12370.8,29309.7,22089.8,13028.8,20408.9,16039.9,23573.6,18088.4,13521.6,0.0,16079.3,
156,0.718,18144.7,23255.8,19081.0,15676.6,20837.9,22311.8,19840.9,14505.8,23599.1,20903.7,14737.7,32499.4,25776.3,13498.3,20198.3,21283.1,30460.1,19194.4,15947.8,0.0,37533.0,
157,0.485,15150.9,20484.4,26696.6,22929.6,18525.0,23387.3,25831.3,16793.1,25568.9,18135.5,14587.9,23370.9,23341.5,14055.9,18950.9,14865.7,18377.4,24161.6,18636.2,0.0,32572.9,
158,0.261,10737.5,12171.0,13078.8,12800.4,11597.3,11676.2,12308.8,10554.9,13140.5,17727.4,7786.4,11640.6,16684.2,6496.3,7072.2,15300.2,20301.3,13814.3,17252.5,0.0,26223.8,
159,0.24,6020.5,8987.9,10815.9,9927.5,7550.3,12366.3,13332.7,9514.9,17768.1,15680.6,18226.4,61480.0,19539.1,5741.6,22049.0,83231.3,16455.8,13624.8,18644.3,0.0,15552.0,
160,0.196,4890.7,4399.3,4022.5,4568.5,4825.2,5047.7,4869.3,6265.6,5655.8,5362.6,12675.4,16291.1,6961.8,11203.8,7824.0,10383.1,9429.7,5393.8,6539.1,0.0,17143.6,
161,0.299,7065.9,7082.5,5496.3,6549.1,7892.3,7116.7,6476.5,9237.0,8919.7,10656.0,11173.5,10220.0,10051.9,9933.8,10669.1,11510.6,9854.0,10017.9,9155.7,0.0,19779.3,
162,0.256,6976.5,12593.9,12096.2,13194.8,10282.0,13459.3,12293.1,7401.6,11851.6,15927.2,6459.5,11434.9,15590.2,4437.9,9210.7,9231.1,16025.6,14590.6,14070.1,0.0,20414.1,
163,0.221,5971.2,8842.5,13370.4,14524.6,11182.7,12452.4,14657.3,10723.8,15387.0,20063.1,8721.6,17533.0,19414.6,6012.8,10102.1,9141.5,20102.9,17505.4,18335.5,0.0,22059.2,
164,0.541,11153.8,14088.8,15206.5,15484.5,15832.0,16844.6,18190.1,15130.9,22935.0,12371.6,8754.9,40058.1,21871.3,9889.2,16166.2,25967.1,17388.8,18981.7,14170.7,0.0,17410.3,
165,0.838,4727.3,8246.1,13590.2,14920.0,7310.9,10014.9,13153.2,9296.1,14951.1,19199.5,8778.2,53054.1,25621.6,6606.2,17713.1,27354.1,20617.3,17770.4,22858.0,0.0,19386.4,
166,0.693,8896.3,12641.1,17858.5,16842.2,11687.1,16135.1,16704.6,9311.2,18687.2,20170.4,9992.8,47313.6,27919.6,7518.3,9915.5,18184.0,35052.2,17391.7,17818.9,0.0,26970.3,
167,0.295,5744.5,5014.0,5370.2,5472.4,5103.5,5517.4,5108.2,7225.1,11486.7,11982.6,12058.6,62976.5,19973.0,7776.1,12901.3,32552.0,20683.2,10803.9,7195.3,0.0,17470.3,
168,0.395,14330.5,16452.8,14356.0,10505.3,19359.2,17586.5,15032.4,17042.0,18385.0,12159.3,8326.3,28152.8,16524.2,12795.3,12418.4,10002.9,15315.0,12523.5,14546.5,0.0,20471.3,
169,0.488,25520.1,35782.8,44242.0,43096.4,38799.4,43610.0,48780.0,33116.0,51546.5,49368.6,22984.5,114294.2,63829.3,22070.2,32563.0,62315.7,57325.7,49618.2,46389.4,0.0,34308.1,
170,0.34,7065.8,6785.8,8371.6,7885.1,8278.1,8846.4,8160.5,5981.6,11905.1,6776.3,5835.3,20090.9,10715.2,6549.7,7133.0,11149.2,8422.4,8202.3,7553.1,0.0,14929.5,
171,0.302,16142.3,11218.8,13228.7,20540.4,11581.3,12621.8,16000.7,13251.9,17284.6,31569.3,20116.8,48211.2,29278.7,20742.0,16306.4,21267.1,34851.5,26033.1,32652.6,0.0,53599.5,
172,0.307,13263.0,16079.7,15300.2,13364.1,16850.2,18579.4,16295.2,15919.4,17285.9,16632.2,11868.5,16304.6,18333.9,13714.3,14891.3,10351.9,12285.5,16496.5,16716.6,0.0,33232.3,The wind is swirling around the dot - leaving the comet tail.
173,0.975,8185.6,11428.5,14527.8,15349.1,9252.7,11382.7,11903.5,9147.6,8841.6,15199.4,11011.0,13528.1,13064.5,8551.0,11199.2,10982.9,14602.6,13316.8,18153.1,0.0,25777.0,
174,0.569,12787.6,16694.8,16974.9,17542.9,13169.3,13668.7,14303.3,16333.2,16883.5,11496.9,13523.4,35295.3,15357.0,14741.9,20195.0,19874.2,19480.6,13675.7,12928.8,0.0,36194.6,
175,0.232,15353.9,16600.7,18299.7,17227.1,17481.5,19698.6,19551.5,16771.4,23118.9,19347.5,12992.0,55907.7,27692.6,14876.6,18660.6,9982.4,33917.5,19206.2,16263.7,0.0,33169.2,
176,0.555,17674.2,22592.9,24014.3,18481.5,16854.7,15945.3,16259.8,14893.5,14195.7,15469.4,13272.9,36070.8,18893.4,12853.6,16890.3,23799.1,19596.1,16195.0,18742.7,0.0,49479.2,
177,0.715,35053.0,43185.9,45687.2,39862.6,39246.5,39443.5,37925.9,32568.3,33828.8,32359.7,17281.4,56894.7,43878.3,24200.2,23814.2,25817.1,46394.4,33275.2,29322.5,0.0,21141.1,
178,0.561,6455.9,9936.5,14295.6,12363.9,8457.4,11158.3,12481.6,9774.7,12760.2,17423.8,11863.0,62700.8,25270.9,7639.2,19409.4,28982.1,42828.7,13049.4,13492.4,0.0,32910.0,
179,0.304,8824.7,12325.2,15342.9,17964.8,13665.4,16853.9,16664.2,16227.6,21017.4,26622.3,9781.1,43366.3,36234.8,8577.4,17777.5,21949.4,32133.8,22765.1,19000.7,0.0,21031.6,
180,0.255,12894.6,15250.5,16689.5,19436.1,14089.6,14572.9,16917.3,12225.1,11653.7,22694.4,17066.1,31843.0,14653.4,10756.3,16852.8,32347.1,11711.9,17634.2,26343.2,0.0,39038.6,
181,0.282,8628.8,13720.4,21176.6,17750.4,17668.9,20725.9,22584.1,17105.8,26554.1,19264.0,11071.7,28103.5,19850.8,8643.3,17135.7,15015.8,19753.9,19606.8,28226.4,0.0,22391.2,
182,0.296,18600.6,15358.0,18370.9,23391.6,17998.9,20293.3,21721.7,20043.5,23157.9,38631.4,22941.1,27345.3,34196.6,26056.5,22875.3,22509.0,28964.3,28830.9,42421.4,0.0,61639.2,
183,0.576,8172.4,6669.6,6659.0,11963.4,7509.2,8390.0,10690.2,8242.4,15036.4,20544.9,10220.6,26625.8,22857.9,7937.2,14017.3,26252.0,25670.1,14443.5,18105.2,0.0,18637.8,
184,0.319,15743.1,14798.6,17282.3,14765.2,15762.9,21006.7,18435.3,17317.2,19774.7,16686.6,19153.1,19664.9,20118.9,16543.7,20524.9,16913.8,13869.4,18139.9,15763.3,0.0,40407.3,
185,0.212,12025.8,10744.6,12429.2,12923.0,12184.3,14951.8,14071.4,12968.2,14343.5,20459.5,13148.5,25795.9,21762.9,9982.3,13667.5,16109.5,23696.2,17678.9,19117.5,0.0,32994.3,
186,0.206,9448.1,13745.1,15332.2,16254.6,12447.7,15436.5,16298.2,10193.0,26823.7,23260.7,5045.5,69797.3,42245.7,7549.6,15187.9,19243.5,32071.7,26894.3,18693.3,0.0,13636.7,
187,0.303,20718.5,25985.8,28919.3,24499.3,30450.4,33671.7,33649.2,26824.5,53606.5,51708.9,18667.4,173892.9,77803.5,19277.9,42645.5,93790.0,89670.1,41783.8,32422.0,0.0,33656.8,
188,0.235,11246.4,13575.8,14484.1,14602.4,14872.1,16474.7,18648.3,15859.4,25343.9,21613.1,11981.0,66651.1,31322.2,10923.3,20612.3,27567.0,30931.6,22471.9,21065.8,0.0,30281.7,
189,0.372,12142.8,18176.6,21755.3,23178.9,22944.9,29330.2,27646.1,19296.8,28853.8,26114.9,14438.7,36536.7,24902.1,12164.7,13587.3,17797.7,22968.9,24849.1,30069.3,0.0,21950.6,
190,0.249,11502.4,12688.9,14343.8,18231.8,15217.0,17314.9,17152.7,14846.0,22425.7,28422.4,12422.8,28286.6,29560.9,9842.2,19195.4,17319.2,40527.0,23403.6,24513.7,0.0,28807.5,
191,0.249,10896.6,13889.7,17690.8,15777.4,17307.9,20600.7,23187.7,12844.3,27310.7,23416.8,6057.9,29937.0,28164.0,5901.5,12831.0,22408.2,68441.3,21043.4,17332.0,0.0,11716.4,
192,0.217,7337.0,9504.3,10181.9,11358.6,10615.2,8785.9,10559.4,10618.7,10572.0,10135.6,7037.5,10572.9,11144.2,7335.3,9452.0,6359.5,15491.2,10560.8,11974.1,0.0,20086.8,
193,0.226,14931.0,13637.4,12911.4,16197.3,16083.6,14587.3,14588.3,16215.2,17492.8,17462.1,19184.6,40345.5,21507.8,14787.4,26833.4,35561.0,21929.7,17711.9,15545.1,0.0,36935.9,A lot a strong wind.
194,0.38,11789.5,11359.3,12387.7,10516.2,11059.8,11024.9,10379.0,11733.8,11885.1,6828.1,10672.9,12826.0,12447.4,9001.6,10796.1,12550.3,10248.4,11973.0,9237.2,0.0,36216.6,
195,0.49,15624.4,17187.9,16013.5,14031.7,15935.9,16658.0,14893.9,15614.9,17255.0,14701.0,12097.3,26900.7,18184.3,14097.5,18853.8,21732.5,19627.8,15347.9,13881.2,0.0,17175.5,
196,0.233,9131.4,10618.1,11954.3,13682.1,9995.1,11465.2,13629.8,9035.1,12999.3,14920.0,7551.4,20013.0,15327.5,9848.2,11577.2,11208.1,29038.6,12699.4,12851.7,0.0,31935.0,
197,0.321,21297.1,25392.6,26454.6,28554.7,23829.3,24392.6,24064.2,19924.8,23113.0,20977.8,25985.8,19665.4,16758.3,21664.0,16258.4,29314.0,20991.6,19890.4,24665.5,0.0,28863.3,
198,0.21,6527.3,6413.2,6028.8,8102.5,9255.8,8174.7,8231.9,10225.6,15635.7,22039.4,6095.6,95672.5,35689.7,5134.4,17500.0,64240.6,61062.3,14051.5,13664.4,0.0,15040.2,
199,0.228,5545.8,9400.7,11332.5,9403.4,10912.2,11897.2,11015.7,11003.4,16246.4,16246.1,9995.6,21277.7,14232.6,10122.8,14213.3,15148.7,14977.9,13725.4,17658.9,0.0,21505.4,
200,89.457,1027051.1,85624.7,175799.4,1627308.8,20427.8,29167.7,38296.1,19471.1,36216.8,23321.2,24684.1,42342.5,23293.3,97601.6,29999.2,39551.3,26354.2,28693.8,368957.1,0.0,20840.1,FRUITION-CALC
201,37.665,17158.5,51384.8,38385.0,25222.1,30522.8,32172.9,26515.7,18940.6,23336.1,16272.9,17093.9,23506.1,14774.5,12262.6,18050.8,48035.8,22343.3,22612.5,20575.5,0.0,17291.0,
202,0.275,7968.6,7970.7,11628.1,12690.5,9727.5,12663.8,13873.3,12092.2,21036.5,28352.3,9654.4,75830.3,38730.7,9972.2,19398.7,82427.9,75091.2,22888.4,16971.9,0.0,25532.8,
203,0.277,14251.7,12596.6,11495.8,11584.0,13508.0,14812.7,12284.1,15933.7,17499.2,28133.1,18211.5,62114.2,37664.5,19006.8,16826.6,36424.8,87882.2,14387.4,18616.9,0.0,43441.8,
204,0.302,17412.7,19727.0,17837.5,15963.8,18917.0,19336.1,16948.4,14726.9,16184.6,22781.2,16454.3,36750.1,26011.7,18355.0,13846.7,18647.9,57483.9,15813.8,15147.0,0.0,17560.9,
205,0.338,28327.3,32191.6,32997.6,29469.8,37682.8,37685.1,35315.7,33476.1,38145.9,39887.6,27972.9,36261.7,33860.9,23633.1,32946.7,54088.8,76529.7,32051.4,27247.2,0.0,21122.1,
206,0.298,13611.7,13814.2,16974.2,17762.3,15730.9,17714.0,19418.2,14982.2,17817.7,17106.9,11961.8,50769.2,26866.4,10710.1,11308.5,63708.9,56706.6,17740.3,15641.5,0.0,26889.8,
207,0.286,9053.8,11025.8,16665.2,19388.7,12184.6,17966.8,19949.0,11453.2,25701.9,32597.5,6382.8,67587.2,53636.0,4542.9,11300.4,31743.6,93418.8,29798.0,24043.4,0.0,21324.7,
208,0.263,18893.6,32202.1,38873.9,36723.7,33303.9,43534.2,42020.4,21182.7,43667.3,32927.4,11949.8,45373.8,35832.9,11534.7,18413.2,20307.4,44769.2,39360.0,35343.2,0.0,33121.4,
209,0.448,35813.4,44095.5,48735.1,46272.7,44764.7,48259.2,45413.4,33592.1,43172.7,30197.6,15857.6,24683.6,30297.0,30908.2,21261.1,45223.9,39006.6,38085.8,44856.4,0.0,26958.5,
210,0.262,18963.6,23238.1,17089.4,15323.7,17812.7,19799.7,16778.7,12305.2,20431.5,18947.8,22985.4,195956.6,37365.3,12179.2,47759.6,159884.6,119107.5,10524.0,13939.6,0.0,32634.2,
211,0.222,10755.0,16988.0,20439.2,23879.8,17812.3,23701.1,25460.6,14597.5,32196.8,22566.0,13403.2,73566.5,23345.7,8645.7,26251.3,81867.3,24830.2,23620.7,22402.7,0.0,19553.2,
212,0.251,7982.7,12106.5,13008.6,12358.4,15607.6,15515.5,14345.0,20444.1,35884.6,13439.6,18767.5,141254.7,22868.5,9994.6,49018.8,96769.6,44454.5,14377.9,14717.6,0.0,22343.0,
213,0.407,28617.7,28093.1,28559.3,28949.1,28471.7,28442.9,32990.0,18768.7,34632.6,46811.3,17233.2,84047.7,58130.7,20445.1,21192.4,56339.9,51494.7,40315.1,44653.5,0.0,20453.4,
214,0.375,16938.6,24226.4,28162.4,25003.9,23301.5,28132.9,30191.3,21102.4,34792.1,24377.0,14750.1,141459.4,53601.2,10565.1,29524.7,102999.7,114744.8,34007.4,21380.5,0.0,16081.4,
215,0.403,31205.4,33132.3,32330.4,35392.4,43509.4,42336.4,39568.2,37311.8,53551.1,43532.9,37162.4,111151.0,70054.5,33569.7,37247.4,66788.6,114940.3,42312.9,33576.1,0.0,54170.5,
216,0.343,24968.0,28893.1,32046.5,34020.5,34546.8,38307.1,38994.7,24460.5,46005.6,81765.5,15975.5,166894.0,119296.3,15056.4,27565.9,86549.1,262559.8,50230.6,41799.7,0.0,21000.4,
217,0.213,8197.4,11441.9,12630.3,15619.2,14427.1,19788.7,18754.6,11628.8,22986.8,38736.9,13571.5,114951.0,57516.6,7215.8,20183.0,51739.3,122387.3,22366.4,21830.2,0.0,15486.8,
218,0.213,20776.6,25091.8,27255.2,22428.7,21846.2,23756.8,22776.5,11708.0,15434.9,51223.0,13225.6,101369.1,62883.2,12873.1,20250.4,74781.8,158338.1,25413.7,25980.5,0.0,53092.4,
219,0.257,20847.5,30575.6,30763.7,18861.4,26705.6,34508.5,27850.3,8443.5,13680.4,46526.1,19107.0,146702.1,60720.6,6751.3,23085.1,140765.4,187803.5,13418.5,14421.5,0.0,16927.5,
220,0.252,17838.5,18098.7,19946.3,23143.3,21931.3,26240.9,26745.5,21162.5,28768.1,37925.3,27286.7,110304.9,61559.2,18279.3,45559.4,100805.2,74920.9,37656.6,31352.0,0.0,24087.9,
221,0.288,22619.8,26543.4,38811.9,43316.5,33033.9,44462.8,45453.9,27853.3,48270.5,33624.2,15602.7,78938.7,44356.4,18623.9,24285.2,70856.7,35997.2,50053.5,43981.7,0.0,28045.3,
222,0.256,22019.4,25276.0,27850.8,26908.0,29938.4,30541.2,32551.1,31125.5,43084.6,23104.7,35963.1,77111.8,32447.5,26960.9,37125.2,80726.6,49563.8,28352.3,23248.0,0.0,34511.9,
223,0.191,15510.5,20254.0,23286.7,25083.6,23487.6,26401.2,29148.1,25862.3,41583.5,14040.1,24616.5,179850.3,29136.7,16160.2,54821.6,152379.9,13690.2,29674.9,21677.4,0.0,27637.6,
224,0.288,18785.4,21010.5,22861.1,21080.1,24434.7,29345.8,27255.4,22644.3,35866.2,15283.3,22525.2,150412.0,40601.4,15854.1,39906.0,89988.4,40142.3,29478.7,24744.5,0.0,29697.6,That was no self-impermanent door fruition on sort of a grayish blue wind.
225,0.42,15261.3,24493.5,29516.6,21188.4,23716.5,27779.8,26376.5,16991.3,29231.1,32922.2,14967.2,235053.4,74482.4,10180.0,39253.8,162097.1,208188.2,23619.3,18306.3,0.0,16933.7,
226,0.238,10317.4,14466.2,15334.6,14116.1,17084.7,19871.9,19968.1,10863.4,25974.4,30058.0,18546.3,216161.9,98986.3,7498.9,35065.7,144875.8,196308.8,24265.6,15177.1,0.0,21327.4,
227,0.359,33387.8,38962.0,39205.1,36056.9,35944.9,39747.1,38372.9,27197.1,47194.4,52738.9,24636.0,173198.5,69830.7,23673.3,43391.7,142414.6,86573.7,37222.5,47579.6,0.0,49171.1,
228,0.321,21323.1,21060.8,26080.0,25063.2,23535.4,24704.1,26863.0,26866.1,33433.9,36211.4,14206.9,75117.1,63946.5,22646.4,32141.5,67070.3,68376.7,38071.3,31698.4,0.0,46844.6,
229,0.325,12002.5,14471.8,19139.8,19302.1,16077.5,20161.2,20105.4,13342.4,28580.3,31594.2,14356.0,118842.0,45830.9,8730.9,31840.3,84434.2,54493.6,23056.3,20293.8,0.0,23528.8,
230,0.421,36160.6,35327.2,32072.3,34847.3,36375.8,36711.9,37980.5,36166.9,47006.8,36837.0,22793.0,121432.2,59751.5,25557.0,41279.2,75553.8,72829.1,40953.4,32353.3,0.0,27762.4,
231,0.877,7547.4,9277.7,9223.4,9757.0,9437.8,10325.2,9881.8,7786.4,18718.6,14149.1,6403.1,44483.1,31186.4,4434.7,13415.6,17567.6,29438.0,17061.2,13885.1,0.0,14743.3,
232,0.374,23596.4,28063.4,28167.1,24285.7,31789.0,34499.6,32479.6,30159.6,40056.3,26030.8,12682.9,36269.1,37143.6,20122.9,22288.6,42267.1,42326.6,38830.0,29040.6,0.0,27711.0,
233,0.234,16141.6,20977.7,29455.7,29741.6,25449.2,31066.2,32453.3,18720.7,36766.2,28671.0,12427.2,65332.2,42309.2,10765.7,14460.4,49827.7,59392.9,30340.0,32411.4,0.0,33429.6,
234,0.246,21867.2,25412.0,28800.4,29560.6,25873.5,31833.6,33476.3,21662.1,32448.0,33020.8,9493.0,108298.7,50948.0,16837.5,15093.7,86772.4,100690.8,35814.4,33992.6,0.0,34566.8,
235,0.272,12793.5,12005.7,15135.4,17279.2,13840.2,17982.6,18127.6,14608.4,24907.2,23621.8,18710.7,52263.8,28739.2,14553.6,27877.2,40781.0,18598.1,21728.3,34060.3,0.0,10187.6,
236,0.198,9297.0,9788.0,11350.8,11522.9,10669.9,13249.8,13293.2,11412.6,12948.6,14845.1,10544.4,26521.5,10394.0,9058.2,14907.2,35450.1,19210.6,10485.0,20975.2,0.0,12162.4,
237,0.234,9513.6,16497.8,18432.8,21416.3,15956.1,21501.1,22907.4,10875.6,25159.0,22354.8,16166.4,132688.6,35140.5,6601.0,32612.4,134017.7,111656.0,24315.0,25698.6,0.0,21885.3,
238,0.263,21290.7,27691.4,33315.4,29756.8,30212.4,37464.8,40586.5,32426.6,55551.8,30328.4,30601.8,123313.4,46406.5,23984.4,46177.2,113183.7,81465.9,42793.2,31732.2,0.0,24434.7,
239,0.292,11516.9,13675.2,14347.7,15216.1,14021.9,14811.7,16307.1,14138.5,20017.9,22830.8,23801.8,56991.4,29088.2,16903.1,29861.4,80431.2,57512.3,16251.4,18580.8,0.0,17498.8,
240,0.441,14077.9,16003.5,17187.8,16395.3,18935.2,21621.5,19510.7,15604.5,22634.6,29343.9,31346.3,31170.8,27064.8,17212.3,16855.3,50776.0,70451.3,16347.9,22261.8,0.0,18670.7,
241,0.229,11250.2,15694.4,16555.1,13257.2,16354.1,18957.4,17283.9,9283.2,19383.2,11573.3,7887.9,21342.6,14099.8,10849.0,10805.5,20688.9,15947.6,16882.2,13716.3,0.0,18414.4,
242,0.33,24615.7,32047.9,33614.8,29058.0,30008.4,31439.1,31360.6,24849.6,26818.7,27540.3,18889.3,42568.7,29517.9,22073.4,21004.1,37019.9,34536.9,27733.4,29456.3,0.0,31170.8,
243,0.235,7636.1,7934.4,11747.1,13623.5,8902.6,11308.3,13281.3,6155.7,14008.9,16186.8,9506.8,19737.0,20249.6,7098.6,6277.9,14519.3,20600.8,16767.0,16407.2,0.0,30095.1,
244,0.388,18523.5,23605.8,31224.5,31291.5,31532.6,33957.5,37208.1,28132.0,39567.4,25364.6,20794.0,38392.4,41557.1,19224.2,29827.3,47541.7,29316.6,45974.2,38486.1,0.0,46422.9,
245,0.225,10537.7,15675.4,20435.2,20358.3,14906.7,19706.3,20620.6,16463.2,25048.3,37373.8,6213.3,35096.9,27475.1,7789.1,20190.7,28713.9,47909.9,21250.0,22069.7,0.0,29591.9,
246,0.242,12202.7,17879.8,22383.3,24318.2,19446.1,21410.5,21820.0,16660.3,22792.4,23417.1,12902.3,43258.8,25519.1,8617.4,22641.7,42658.8,33118.6,22696.7,26977.0,0.0,17964.9,
247,0.24,11049.0,15410.7,16920.6,21074.4,10291.5,14703.9,17383.7,9431.0,15662.9,41043.0,14323.9,88964.2,43307.2,11492.1,18657.9,101917.1,102931.4,20219.9,26102.9,0.0,35703.0,
248,0.225,9990.0,10020.1,11877.9,9501.0,11238.9,10486.3,12068.5,12965.4,19042.3,12075.6,12211.5,66615.2,23081.8,11241.2,24670.9,31848.2,27053.8,14221.0,9682.7,0.0,27170.5,
249,0.226,9453.5,12623.9,15890.0,17911.2,11269.7,13149.4,14805.7,9827.2,13702.3,29145.9,20605.4,42431.5,28465.4,12932.3,15611.8,66373.0,28700.5,21979.9,24167.4,0.0,46589.8,
250,0.248,15908.5,19694.7,22156.5,22728.0,22225.4,28238.3,29898.9,19432.5,45953.5,32560.0,15043.4,126101.1,77429.6,11902.0,28252.2,62602.1,53700.8,47672.2,25990.3,0.0,29259.6,
251,0.224,9553.7,11016.5,10560.4,13054.3,10010.8,12406.4,13118.9,10459.2,14453.2,60622.1,22185.1,63741.3,84088.2,13673.5,20206.1,64494.2,200975.2,20888.3,26479.2,0.0,28025.7,
252,0.253,20671.5,26814.1,27346.5,25619.1,29045.8,30173.8,28273.2,21708.8,32214.6,64757.2,16429.3,66026.1,71095.2,15694.8,20459.9,82893.8,123497.0,37747.1,36937.4,0.0,37897.2,
253,0.241,15836.7,19666.9,27734.8,29457.8,22504.0,32508.1,33387.7,16341.2,39319.0,24109.8,21582.4,173294.0,66314.3,17142.9,34960.1,101675.4,96706.3,38315.8,30705.8,0.0,37172.6,
254,0.262,17846.2,24486.3,32645.0,28883.8,26758.2,36298.5,35166.5,18588.4,44791.7,59288.1,18419.2,215575.1,101078.3,13818.3,54975.9,162900.9,165019.6,50733.1,37141.5,0.0,28312.1,
255,0.243,11784.3,9815.1,14680.2,16683.8,13735.6,16026.8,16780.1,12879.5,25688.6,22064.0,13051.8,70410.3,20444.8,11456.4,22853.9,66185.6,33268.8,19667.6,21559.9,0.0,26721.0,
256,0.224,16876.5,20617.2,24822.6,27983.9,24490.0,27402.3,29740.0,16672.7,26224.7,8193.3,19726.2,99076.5,13846.5,8806.8,34302.8,146554.3,32667.9,24090.8,18984.8,0.0,14356.8,
257,0.219,24159.5,29197.7,30752.6,30093.5,32126.8,33742.9,35100.3,28699.5,53734.5,22964.0,30622.6,189991.2,46208.0,16711.4,55704.7,173601.4,86852.5,38289.4,32062.2,0.0,51096.8,
258,0.438,17568.0,16973.8,14518.7,15816.1,18810.3,19441.5,18058.7,20492.6,25862.9,32273.6,22412.4,45052.4,33401.5,17783.1,21992.5,51809.8,71407.7,22986.5,24681.9,0.0,20995.9,
259,0.231,15335.3,14778.6,12342.1,13615.3,16458.6,16674.2,15061.5,16480.4,16544.4,25909.5,24809.2,59360.9,35603.6,16787.4,24887.5,78188.7,106454.2,15195.9,14762.6,0.0,26780.5,
260,0.198,9647.1,15374.8,16975.2,13894.1,18080.3,20056.3,18419.6,12705.0,19858.5,25584.8,23839.3,110827.2,40962.8,9692.0,33154.6,161542.9,128767.1,15705.8,9201.1,0.0,25048.2,
261,0.191,5677.2,10455.9,19060.2,21720.1,11894.4,15648.2,18012.8,7209.2,13815.0,9574.9,10889.6,17317.0,9444.5,5766.2,8677.4,83743.5,31159.1,14447.7,15808.4,0.0,13500.9,
262,0.407,38878.6,35327.7,33239.8,31269.1,37342.8,36900.2,36156.0,37341.0,43196.8,24767.6,26819.5,38456.0,30399.5,33846.0,33493.2,28365.2,29204.0,34136.3,25144.8,0.0,20195.9,
263,0.209,17762.9,13475.6,11658.9,12068.7,14119.7,12769.1,12709.1,12623.2,16775.4,16203.8,13187.6,17976.9,18066.2,12305.1,15023.9,16754.0,16537.6,16229.5,17996.5,0.0,38042.8,
264,0.191,6677.8,9517.6,11297.0,9933.9,10289.5,11383.8,11130.9,7496.1,12293.8,13685.9,9188.9,14938.8,15729.4,6106.0,9971.8,21624.8,17358.3,12597.7,11467.6,0.0,18005.2,
265,0.215,7418.6,12344.7,19487.9,24741.0,11770.6,19911.3,24004.1,12981.9,26739.5,38879.0,20813.6,103536.7,46552.4,9934.9,32644.9,132545.4,78219.4,28745.4,27394.5,0.0,18454.1,
266,0.227,9309.0,10850.9,12590.0,14778.4,12725.7,14963.4,14088.8,10724.4,17331.9,12414.6,10356.4,16668.9,15627.9,10145.1,11942.4,16698.3,15144.8,14779.6,11124.5,0.0,26777.3,
267,4.245,17412.0,51073.4,29676.7,12872.0,30225.7,33719.8,28706.0,14217.6,30278.0,15524.2,8518.3,33246.2,18013.4,7566.7,12080.1,73917.6,66601.0,18231.3,10469.2,0.0,12495.4,
268,0.322,16010.6,21356.1,26553.9,22705.8,21108.3,27408.8,26364.6,16260.2,27476.8,13172.1,12863.8,101190.3,26047.6,15332.5,26563.2,93615.9,52328.1,18426.3,14561.0,0.0,34089.8,Attention dropping back down on the afterglow.
269,0.461,18786.7,16476.5,17651.1,16183.3,17790.5,16513.1,17227.9,14408.3,24831.9,13539.7,9917.8,90082.5,35011.3,10028.5,15603.8,39990.0,51525.0,17331.5,9154.1,0.0,19685.7,
270,0.968,14812.1,19051.0,18562.1,16288.0,19746.4,20890.9,21144.3,18078.1,26270.7,15938.7,14611.7,165713.0,41138.2,13366.6,33554.1,107243.0,120462.2,16240.7,9816.8,0.0,22646.8,
271,2.268,21951.0,70581.7,60519.1,38159.5,32291.4,39623.8,37135.9,15912.4,22078.7,47678.3,17999.5,144735.6,70050.2,9011.9,29270.9,140253.6,249480.1,21254.9,17781.5,0.0,17372.7,
272,1.154,16929.1,23548.4,32667.5,33790.5,23353.4,29804.7,29169.5,17851.4,21625.7,12523.2,19081.1,91556.4,22447.9,11468.9,35973.9,109604.0,77072.3,21758.1,13461.3,0.0,24871.2,
273,0.802,11305.4,18762.0,18305.2,17432.3,15188.4,15481.4,15926.8,12256.3,13406.3,14002.7,11961.6,28514.1,14289.7,10744.6,17754.2,38381.2,22976.3,15205.3,17866.9,0.0,27173.1,
274,0.241,15722.7,14054.9,12503.2,10595.6,12809.4,12218.9,11614.3,11453.4,15135.7,13867.1,14456.0,55734.6,29087.1,12575.9,14648.9,45310.3,46283.2,11485.7,9607.0,0.0,28852.5,
275,0.178,12365.5,16602.2,22326.1,24034.6,23648.3,27166.5,28524.2,17428.8,34354.4,47569.1,19888.4,130509.8,69705.8,9354.2,30557.2,145501.1,157158.1,25737.0,21995.5,0.0,20628.0,
276,0.182,17098.3,19664.5,18565.0,17060.4,16983.4,21419.0,17284.8,11537.2,12114.6,33995.0,13453.1,75433.5,42977.7,11552.3,15279.4,99149.2,116469.2,15298.0,14210.7,0.0,32347.5,
277,0.325,19754.1,27942.6,31061.3,27195.9,24721.0,30203.5,30424.1,17170.6,29975.4,20693.4,9370.9,82136.6,31476.1,10054.6,18168.1,96650.3,101734.8,26015.6,23244.3,0.0,35704.5,
278,0.366,30683.6,36792.4,37963.3,33359.8,37245.3,44915.1,43086.6,24399.8,36841.3,28828.9,15781.1,122641.4,58068.6,18824.8,30318.2,85200.2,107055.9,34448.2,26417.6,0.0,32177.5,
279,0.692,12595.4,20446.6,28169.7,28236.2,21891.3,29843.3,27763.0,12320.7,24054.5,35302.8,16051.5,79590.5,54807.1,8552.3,19932.7,94054.4,123127.9,28662.1,34950.7,0.0,28884.4,
280,1.047,18395.7,28623.9,35135.6,24206.0,25784.6,32211.3,31190.5,14893.3,32793.7,26688.4,26584.4,299876.3,85224.1,9678.6,49038.1,163720.0,137125.8,23586.1,17146.1,0.0,23149.6,
281,1.375,24781.0,25300.2,22217.6,20098.1,25115.7,28053.2,26656.3,28507.9,47137.6,36532.1,15910.2,189043.1,77257.5,18850.0,36748.5,73477.2,118496.0,33027.7,21953.2,0.0,36616.5,
282,0.866,18306.3,12975.4,15693.7,26668.9,16198.8,18011.4,21580.0,18007.1,29011.1,51757.6,17987.6,183858.8,80307.5,15230.9,37440.5,82191.4,156834.6,30157.7,33840.0,0.0,33380.3,
283,0.295,11672.8,14575.6,15581.6,13161.6,17501.3,17523.0,15484.4,17486.7,23206.0,43655.7,23976.7,139535.4,54843.2,14991.8,39844.1,88913.2,115757.1,19759.7,23404.3,0.0,40388.7,
284,0.211,13859.8,17970.2,22335.2,16933.0,17340.4,21159.1,20574.5,15803.3,21534.5,24150.5,34120.0,131378.5,28958.4,13963.5,53178.4,193830.8,56702.6,18236.2,21104.4,0.0,25374.9,
285,0.229,24339.9,31052.9,36036.3,29256.1,30378.7,37861.9,36568.9,21868.0,34065.6,13482.3,12321.1,41252.2,18249.8,13765.1,17124.9,83972.2,50148.0,27954.9,22559.7,0.0,37249.9,
286,0.214,14292.7,20304.6,21778.3,13921.0,22852.9,27391.4,22771.8,13437.3,29037.2,24345.0,16983.2,147275.6,37388.5,7863.5,29176.9,147486.8,156693.7,19060.2,12810.0,0.0,22793.4,
287,0.185,13888.4,18398.7,15301.4,11720.3,21744.9,21582.8,19445.5,21826.8,30131.0,36313.0,22010.6,149097.5,66948.9,14410.4,41403.8,109644.2,158625.0,21313.9,18887.3,0.0,31133.9,
288,0.191,8811.6,14768.9,15992.0,13070.9,17415.9,16857.0,17945.3,14701.1,29031.0,25715.6,15222.8,157041.3,61034.4,7882.5,31958.0,68248.2,125301.1,21205.5,21892.3,0.0,23063.4,
289,0.253,29581.5,29241.1,28701.6,22564.5,38520.3,35406.6,33518.4,26166.4,39707.8,16136.7,11279.7,91488.7,29681.8,14497.7,20177.1,85952.2,121390.9,22230.4,14690.7,0.0,26621.8,
290,0.237,21073.5,29707.0,35596.5,39269.9,30583.3,36010.5,38782.4,22809.6,31895.8,40907.3,18560.0,148191.6,61775.6,16759.0,35261.1,101766.3,155811.5,36297.8,45408.1,0.0,34323.8,
291,0.226,12572.2,25965.6,35844.9,31907.5,30626.2,40262.7,40616.5,16122.7,50366.6,47695.6,18756.9,189879.6,85120.6,6302.3,31246.4,129322.1,153150.1,45177.5,37423.8,0.0,13522.9,
292,0.199,13451.4,18148.6,17423.2,16122.1,17730.2,19489.2,22940.1,15225.1,25968.6,18697.4,9661.6,36318.8,23817.3,11578.6,14195.3,17107.0,24765.0,20999.0,18344.6,0.0,33089.9,
293,0.395,17833.0,19813.3,30006.1,33107.2,23007.4,27131.3,30146.2,13109.2,24618.8,58408.4,13893.5,107878.9,59681.1,12876.3,15599.9,86126.0,177867.8,30003.1,36070.4,0.0,26974.5,
294,0.547,14175.1,17792.5,18609.0,18806.9,19488.4,23469.5,20378.1,15009.5,25484.5,41838.2,25684.6,162776.3,66429.8,12997.6,37666.4,137415.3,189390.1,23027.0,23873.2,0.0,18631.4,
295,0.405,15652.9,23428.3,31600.7,33894.0,24486.2,30310.1,33089.7,18290.3,35015.1,28504.6,12588.4,131165.6,43975.4,11523.4,24564.9,67053.8,47973.2,31929.1,28056.2,0.0,39107.2,
296,0.193,10920.9,17835.4,21045.9,18802.1,19852.2,24800.0,22479.4,11897.4,20524.0,33345.9,7427.2,46858.7,24831.9,5837.8,7241.2,38504.2,87650.1,20312.1,24269.0,0.0,14210.9,
297,0.23,26993.8,27443.9,31476.8,33032.8,32090.9,36103.8,34123.8,36048.3,40138.8,44006.2,39755.3,165622.7,67782.5,30663.5,59412.3,160539.0,173480.2,29256.5,28454.1,0.0,16734.5,
298,0.269,28042.0,32405.7,34869.6,31983.0,33308.3,36255.7,39913.1,33105.2,47406.2,29199.7,15647.7,146888.7,62023.1,21704.7,32135.2,45581.2,94918.0,38817.6,35419.1,0.0,17143.3,
299,0.226,18976.4,26938.8,28624.9,27245.5,30709.0,36612.3,36571.7,30525.9,47547.9,23792.5,32630.3,100170.2,39104.8,24099.0,46464.1,84546.7,32259.5,35864.2,27143.2,0.0,52652.9,
300,0.208,9507.5,10308.6,12511.2,13254.9,10838.0,13455.6,15933.0,9839.8,13779.6,26041.0,21346.2,47751.5,14303.4,9090.4,27259.5,104440.2,29879.6,12757.1,15740.8,0.0,22998.4,
301,0.183,14600.7,19786.0,20605.7,23635.8,18168.4,24719.7,25567.5,17621.3,27671.3,35117.3,30481.0,72094.3,21658.9,15283.2,36935.2,77894.5,89734.4,24772.7,28050.9,0.0,38894.3,
302,0.2,14077.1,14161.1,14453.1,17905.2,15892.5,18435.3,18203.6,20128.8,42406.5,26288.7,16499.5,225159.4,78838.6,12417.7,47617.3,112124.5,121658.0,30081.0,21023.2,0.0,24654.2,
303,0.171,16127.4,19407.8,23253.9,23746.9,22487.0,27918.7,30080.4,17645.6,36945.7,50638.4,15894.7,140053.1,74903.6,13721.8,24957.2,94915.5,187803.7,31231.6,24962.9,0.0,32253.9,
304,0.196,14082.7,17881.9,17329.9,15968.5,20414.6,23261.3,19160.5,15944.9,26312.3,36045.5,14325.4,35231.2,35174.6,14429.6,19267.2,40329.3,92422.9,19823.0,22386.3,0.0,36280.8,
305,0.19,25220.1,38826.5,46845.7,43462.1,37958.9,44046.2,44498.3,27322.8,43213.9,27567.6,22238.7,63254.3,32339.8,21840.2,26205.0,61980.9,75138.7,37747.4,42329.9,0.0,39856.7,
306,0.185,17028.3,19602.5,19540.4,18107.0,22865.6,24169.5,20697.4,18194.1,26619.6,20541.0,11105.1,128259.8,51832.9,12364.4,17783.4,72037.8,168393.3,18251.9,10000.8,0.0,30234.6,
307,0.193,14569.4,19379.4,26214.4,29030.2,18954.8,24574.1,28861.2,10202.5,25440.6,51390.3,12715.9,108372.0,68912.7,6468.0,20321.5,78881.8,156149.2,28182.8,32179.7,0.0,14492.5,
308,0.191,10458.3,10993.8,14003.9,13659.6,14213.8,16350.9,16809.4,11946.2,17989.5,50139.0,13843.6,125442.1,65160.8,10760.5,21321.1,76614.1,195585.6,17235.4,19538.7,0.0,25439.1,
309,0.255,13702.5,19375.4,21437.7,20680.0,18576.1,22742.7,24088.6,12115.4,22591.9,19666.5,13135.0,107765.0,45704.6,7989.4,23604.8,96422.8,101961.4,21477.1,20500.6,0.0,25476.7,
310,0.191,19322.2,14899.7,17486.1,13136.7,18392.5,20631.9,19367.8,17435.6,24337.4,24505.0,13521.5,76918.2,20265.0,10846.2,29381.4,88962.5,60793.0,15847.1,18622.8,0.0,20408.5,
311,0.3,12450.2,16629.4,22970.4,30223.9,16906.0,22040.2,27524.3,12000.6,28780.6,33982.7,10692.7,213981.6,80348.2,7086.5,33328.9,126959.0,192583.7,30194.5,23277.3,0.0,10492.2,
312,0.193,12514.6,13415.1,12823.2,15406.6,17677.8,18559.9,16896.1,15610.1,23000.3,51870.7,10269.2,87170.4,64390.9,10121.1,17832.7,52164.0,158146.8,20885.9,31402.1,0.0,29948.3,
313,0.252,32452.4,37336.3,45208.9,43726.9,40061.8,44960.8,51414.9,35851.6,54874.1,58610.1,23979.6,174034.5,90564.4,29136.3,44972.5,76224.4,188590.2,51736.8,44622.6,0.0,35914.8,
314,0.194,18888.8,24530.3,31511.6,39098.8,30932.4,37558.8,41519.4,29510.7,63074.5,97553.2,19136.4,313611.2,151934.1,15380.1,56697.1,111295.6,267423.4,62169.0,48571.4,0.0,33556.9,
315,0.264,31893.5,40623.2,47002.9,54737.9,44002.8,54436.4,57136.3,41276.9,78033.8,66108.3,29148.2,192430.9,105394.2,30932.8,46851.1,53371.6,170148.5,69598.5,61631.3,0.0,17423.6,
316,0.227,12775.3,12449.8,16378.6,24942.6,16303.8,19117.2,23220.3,18091.9,30833.1,61037.3,20336.2,115735.7,70195.3,12158.7,30018.3,68680.1,106114.1,33584.9,45053.5,0.0,25475.1,
317,0.365,28573.6,42184.0,47359.8,41488.0,47614.7,50483.9,50252.3,29969.9,57313.1,41072.9,22850.1,61137.9,67150.5,19674.3,26548.0,37825.9,49715.7,54806.8,43191.1,0.0,45558.4,
318,0.178,10052.7,19716.1,28165.2,31340.3,17641.9,25851.3,29351.7,10566.0,25982.7,29042.9,12290.0,73280.0,34002.9,8894.1,22684.0,95838.9,52319.6,29380.5,34205.3,0.0,26346.4,
319,0.285,34668.8,44809.0,38008.7,29675.8,44569.7,46511.4,43472.8,27126.6,36727.4,25874.8,10430.4,94271.4,25748.9,19370.9,20954.8,94169.0,64470.5,28941.1,28679.8,0.0,29846.9,
320,0.214,21046.1,31271.1,43128.4,41224.0,42809.4,51353.8,50667.4,27512.5,52672.4,23222.3,13273.6,77357.1,30961.0,13862.5,22154.8,46556.8,96314.4,40742.1,31368.8,0.0,20956.1,
321,0.25,8102.7,11231.1,12598.8,9261.5,12341.2,14339.8,16219.2,7135.3,16465.6,12673.9,14874.6,22144.9,17638.7,6285.5,10855.5,32589.6,19797.4,14186.1,13358.8,0.0,18086.9,
322,0.228,19175.9,27101.6,28809.5,22305.4,29589.1,33988.7,32329.5,21396.4,34577.9,25563.6,26991.8,86665.1,31491.4,15832.3,29050.7,106874.7,92882.4,25856.7,18975.3,0.0,24642.2,
323,0.205,19165.0,28679.3,33940.7,35833.5,30747.6,40436.3,44502.1,25208.0,47077.9,32114.1,16397.8,90850.4,53622.8,17945.5,20142.7,38128.1,73594.0,47279.3,40277.3,0.0,56089.0,Coming back up - attention more forward
324,0.171,7430.5,9276.4,14749.7,15491.5,9382.9,12911.8,16281.6,9583.8,17774.6,17936.2,27469.3,91666.3,29515.7,8378.2,27629.5,97175.1,82906.7,15863.4,15434.2,0.0,24550.2,
325,1.01,13315.2,16121.6,14161.0,16505.6,14162.1,15039.3,13460.8,14535.1,18045.3,11963.1,15816.3,26277.9,15174.5,15514.8,17085.6,20380.8,15122.4,14052.0,16944.0,0.0,32356.0,
326,0.216,6977.6,5555.2,6029.0,5866.9,6626.5,6545.9,7097.1,7946.9,9897.8,10238.2,6695.1,15779.1,13136.8,7547.5,8994.4,11274.9,13707.4,9371.8,7562.3,0.0,24609.1,
327,0.224,10797.9,13919.0,10423.8,8540.9,13917.3,13666.8,10853.4,12064.9,11396.7,15053.5,6805.7,13881.5,15929.5,10373.1,9161.9,30061.2,37673.4,10120.0,10339.2,0.0,20018.4,
328,0.441,12590.4,11866.8,10586.7,14034.2,13375.0,13051.1,12762.6,16036.0,13784.8,10328.9,9454.9,36779.7,10533.1,11341.5,11464.1,42107.0,16746.7,11058.2,10753.9,0.0,28341.0,
329,0.288,11570.3,7694.0,9779.0,11102.3,10735.9,10449.2,11881.5,10002.2,15411.1,27652.9,16476.7,62220.3,31333.2,12328.1,16660.5,54862.2,44069.7,19686.2,19529.4,0.0,41064.8,
330,0.335,20901.3,22951.3,25967.4,26843.1,22434.0,26694.4,25612.5,24383.1,31282.3,32346.1,24513.8,37591.3,38491.0,20181.7,27304.5,23662.1,38262.5,32451.9,31038.8,0.0,31666.5,
331,0.213,10073.6,12349.4,9869.1,9394.5,10937.0,12850.2,10939.4,10846.1,10966.8,13418.1,7778.7,12322.1,15486.4,8294.2,13683.5,11548.5,15288.5,13036.6,10332.9,0.0,29642.2,
332,0.236,13317.9,14096.2,13873.8,22465.2,12458.2,14871.6,17605.4,13266.5,15703.8,35007.9,11795.6,22091.8,27799.6,13772.2,14810.1,14588.5,32599.7,22867.7,40205.7,0.0,32647.2,
333,0.89,15531.5,13323.4,13375.3,11656.8,13316.1,12049.9,10181.0,13112.0,11576.9,13934.5,12338.6,10413.9,13230.4,15103.6,12105.6,11157.3,18052.9,10183.2,8572.3,0.0,42360.1,
334,0.224,14215.2,14882.4,15874.5,15234.8,15509.0,16339.5,16641.4,16910.9,19087.1,16519.6,11194.2,16202.9,16739.7,13393.5,13318.2,12074.0,16535.7,17315.3,15822.0,0.0,28008.7,Back to a lot of purple - pink - flux stuff with some amber - color washy - flurry stuff around the edges.
335,0.443,15172.6,14324.0,16881.6,19792.6,18809.2,19609.8,21356.2,20082.7,25707.7,26305.0,13764.1,29521.1,26234.3,13430.9,21910.4,20357.8,30282.2,23620.7,22068.4,0.0,13161.5,
336,2.024,15240.8,17682.4,20733.3,18326.1,15476.3,16377.3,17871.6,12355.6,19624.9,13279.0,9418.5,20063.0,15140.5,12463.8,12999.8,10806.6,14457.3,17588.5,17748.1,0.0,27428.3,
337,0.3,23805.0,23962.6,20041.5,17574.0,23790.7,22641.7,20687.5,21426.9,22561.0,17849.9,20296.3,15684.8,16744.6,19713.1,17537.1,18130.8,15853.4,17948.7,16949.4,0.0,43626.5,
338,0.508,12248.6,14222.0,12593.7,15022.7,13916.9,15363.0,13604.6,12689.7,16640.3,18247.4,11813.4,13757.6,16092.4,8611.6,12230.5,14065.0,19217.1,16388.3,16882.9,0.0,34156.4,
339,0.511,10872.4,11936.4,16024.8,17429.4,10676.5,14383.6,14071.1,8959.7,12864.0,14170.5,17954.2,21077.1,18661.1,13257.1,15179.5,24982.7,18251.1,14434.6,15698.2,0.0,30117.7,
340,0.362,5703.8,8483.8,13850.9,12601.8,8388.3,11019.1,12246.3,9447.4,12567.9,18683.0,11377.9,18224.0,17901.8,8306.8,12557.0,22930.6,27546.2,11895.1,12719.0,0.0,28554.7,
341,0.81,16075.1,15661.9,15217.7,33509.9,13842.3,15180.2,17054.0,21971.0,14363.7,22002.8,20340.5,27627.3,20676.3,16988.8,18715.8,23284.3,21704.2,19116.9,20047.2,0.0,23558.0,
342,0.209,13800.9,14216.3,15120.6,17191.0,12514.0,12818.3,13157.3,17363.4,15649.0,23961.9,13242.8,19707.4,15859.1,14472.8,24444.6,16943.4,16952.0,11420.8,23977.0,0.0,63025.2,
343,0.257,13951.4,20511.3,20309.6,18442.7,21801.5,24173.8,23377.6,16219.3,27149.6,16358.9,8676.8,21994.1,18035.1,12003.7,14104.4,10402.4,12423.1,22262.7,21620.9,0.0,33202.0,
344,0.219,7579.9,10211.0,13236.8,12642.1,7940.5,10702.4,12503.2,8704.4,9505.9,15005.9,11193.8,15991.3,12733.9,7978.5,12298.1,14687.4,11975.5,12355.2,16926.0,0.0,33214.8,Purple dot in the center sometimes.
345,0.886,11986.7,14821.6,17125.8,20857.2,13223.2,15198.1,16591.3,13344.7,18505.1,27328.5,12400.0,19617.8,27422.1,12117.0,15745.0,14419.0,30986.8,19838.3,25069.7,0.0,31705.1,
346,0.283,15997.6,18553.8,16914.1,14747.9,16922.0,18307.0,17861.9,16471.4,20399.1,14172.8,19131.3,41315.1,23665.6,14756.5,21123.8,32452.8,23853.8,17458.9,14649.5,0.0,54107.5,
347,0.455,7695.9,5995.1,7077.9,10367.9,7535.6,8320.5,8036.8,12844.9,9705.2,8335.8,9965.7,12381.1,10965.5,6236.8,12628.2,8952.2,17856.1,8552.7,7459.0,0.0,11500.5,
348,0.234,11803.0,14465.6,16307.4,16340.7,17281.5,21075.9,19382.2,17365.6,26269.3,25296.3,10399.9,35399.4,25996.1,6852.3,14116.0,17590.7,27605.1,24992.6,22782.3,0.0,20094.9,
349,0.262,14379.5,16010.8,20933.8,21068.9,17815.0,23499.3,24092.5,16131.4,19412.4,23525.9,12976.1,24198.6,22732.5,12246.3,12381.1,16723.0,22296.7,22575.4,26968.4,0.0,36615.8,
350,0.407,9639.6,9351.6,8370.3,9155.9,11648.0,10730.7,11878.2,10209.6,12616.6,11965.2,7854.7,17102.0,13388.8,7858.5,9919.9,7950.9,11958.8,12691.5,14260.9,0.0,22247.0,Purple dot in the center of a big tunnel.
351,0.772,22515.1,22125.6,24177.1,24015.2,24815.1,26699.3,27219.2,25890.9,33375.3,25235.8,21339.8,28516.3,30835.7,22687.6,26450.4,21613.4,27156.4,32983.5,30789.0,0.0,37364.3,
352,0.522,9497.0,11944.9,13649.8,13859.5,12113.3,12825.8,14911.9,11773.6,14792.4,14085.0,10991.8,18603.6,17318.7,7593.8,11298.2,15520.6,19803.1,15088.2,18411.1,0.0,27681.3,
353,0.684,6999.1,6549.5,7787.6,8958.8,6697.0,6519.6,7339.1,9322.6,7725.4,7775.8,5520.8,8010.4,7738.6,5770.0,6283.1,6049.4,8008.1,8653.5,8292.7,0.0,21862.8,
354,0.226,11695.7,13120.6,13339.9,13799.2,14192.1,14425.1,14149.4,16430.2,15762.7,12116.8,13324.2,15608.2,13131.5,12787.4,12328.1,11609.6,13010.9,12520.1,12483.2,0.0,32459.9,
355,0.218,9460.9,9607.3,12003.3,11132.5,10767.5,10880.7,9819.4,12811.2,9215.1,10309.0,7728.2,7521.2,8881.3,9217.1,7928.0,8050.0,10620.3,10035.3,11310.4,0.0,27622.1,
356,0.439,12810.5,14039.2,14049.7,12723.7,14633.7,13966.1,14046.4,10710.4,15142.9,14851.0,11108.1,24034.8,20067.6,11219.9,13876.7,16181.9,19682.0,14998.1,12968.9,0.0,24073.7,
357,0.204,7595.0,6973.6,10314.9,8092.3,10109.8,12959.6,9837.7,10526.2,15849.2,9710.8,7445.3,21456.1,13193.1,6632.7,11317.3,12107.9,11890.4,11536.3,11281.1,0.0,9983.4,
358,0.2,6113.8,6282.3,5438.8,6000.2,8625.1,8928.4,7328.2,8880.4,12920.4,14202.4,9534.7,18030.6,14304.7,7473.5,11655.8,8537.4,14244.5,9247.2,13893.9,0.0,13743.2,
359,0.203,6276.9,9801.7,13124.1,11704.4,9897.2,8952.6,11187.8,8497.0,10874.7,8403.6,6682.8,7863.4,7454.2,7412.6,8288.4,9092.8,8493.2,9984.9,9812.1,0.0,16142.7,
360,0.176,4231.5,4845.2,5954.5,8151.5,5081.8,5528.7,7365.8,6344.6,6744.2,8584.9,6557.7,8998.7,7593.6,6960.7,7359.3,7505.5,9340.5,6695.4,9310.1,0.0,17444.6,
361,0.219,12142.3,15193.5,15548.3,17865.2,11945.2,13949.4,14663.0,11314.2,13753.2,13974.5,11755.7,11992.0,15157.9,10801.8,9680.4,11103.0,14551.8,15978.9,15342.2,0.0,36983.0,
362,0.198,17642.9,19604.3,23370.6,24381.3,17117.6,19860.7,22813.0,16950.4,23582.8,29334.7,12777.6,27308.3,32913.1,12255.5,17730.3,14557.7,26553.1,23644.0,29901.8,0.0,55572.3,
363,0.554,13716.4,17240.6,16758.6,15360.1,16219.2,17330.7,18361.2,14849.7,16334.0,11504.0,14438.1,13652.8,13888.8,12957.6,14225.9,12707.7,13672.9,13801.9,12985.8,0.0,37175.3,
364,0.435,15501.2,19411.1,22546.3,22474.2,17964.5,19551.7,20633.4,15111.0,20241.1,23822.9,10705.6,19871.0,25353.1,12329.7,16454.4,17320.8,29612.4,22043.7,21750.7,0.0,29986.1,More comet trail phenomena
365,0.391,11957.5,13951.3,15978.0,20293.2,15227.8,17751.9,20175.2,13828.2,24138.7,26493.6,10547.3,29785.4,32573.7,10233.3,14442.2,29391.6,20824.6,24831.1,29264.6,0.0,17154.8,
366,0.409,14638.1,18814.8,23284.6,24929.9,16127.8,19539.1,21587.4,15688.8,25984.7,31608.7,9803.8,65445.7,32973.0,10623.6,17879.6,27318.0,34418.6,24413.6,30201.4,0.0,27525.8,
367,0.317,20093.5,21815.3,27608.8,29437.9,24722.9,29767.6,33606.1,19836.4,31020.3,37711.6,24435.3,56372.3,42387.5,18040.7,23600.3,53867.7,62334.7,36904.0,34819.2,0.0,29454.0,
368,0.218,13780.4,16847.2,16432.4,14780.3,18791.7,18915.4,19349.4,13029.8,20946.8,12978.8,9211.1,13104.7,15782.5,12316.2,9619.2,8595.4,16874.3,16878.7,15004.2,0.0,36504.6,
369,0.24,5487.3,8878.1,9816.5,10673.4,8840.0,10132.3,9944.4,8645.3,12815.0,13016.2,7410.0,15075.3,14811.3,7282.8,11441.7,10008.2,13230.6,13080.3,15172.3,0.0,17608.0,
370,0.424,9926.5,11378.8,15110.2,11451.9,10306.6,12105.2,14675.6,12079.0,15076.3,17265.8,11194.3,20204.2,22450.0,9105.5,12351.0,9382.8,25251.1,15736.5,15772.6,0.0,24857.1,
371,0.336,12556.0,11654.1,11458.5,14422.5,10253.4,12809.3,14190.8,13317.3,18911.7,11019.1,14552.7,18016.8,13660.7,11219.3,20867.5,21095.2,11993.8,16832.9,13924.3,0.0,28530.7,
372,0.289,14932.4,19434.7,20947.2,20183.4,21617.9,23311.9,19594.9,16545.9,25336.9,16972.7,18606.3,69219.9,29756.9,14709.6,24538.8,49203.9,26595.5,23858.2,19148.4,0.0,21092.8,the wind around the purple dot.
373,0.209,11539.5,13380.4,16430.5,18831.1,13432.9,16764.0,18631.5,15575.2,21254.7,25525.5,21034.7,30440.6,29407.9,14268.1,18156.7,20171.2,29236.2,22765.6,25025.9,0.0,39035.0,
374,0.227,3387.7,4475.3,6825.7,9311.8,3828.6,4984.6,5945.1,4760.2,5376.7,8740.1,14884.3,7667.5,8949.3,7359.6,9438.0,9522.8,10031.1,7373.6,8719.1,0.0,16613.6,
375,0.318,6874.2,10410.3,15855.9,13508.6,13172.6,14949.7,16513.9,11128.7,20234.1,21979.2,14666.4,20790.1,23649.7,12829.9,11913.9,10023.9,22546.3,17461.7,19193.3,0.0,19809.2,
376,0.218,10934.9,9044.7,8155.9,9597.5,9863.2,10751.3,9816.4,9009.5,14797.8,25309.8,13827.1,53144.4,35258.3,11344.7,15886.8,30143.2,34257.1,14980.0,15577.8,0.0,36755.3,
377,0.192,8535.7,9873.4,12545.8,15063.8,11564.7,14912.2,16152.7,11241.1,18233.0,13497.1,9614.2,30484.5,16364.2,9134.9,12415.1,11311.3,12829.7,18756.8,16805.3,0.0,28662.3,
378,0.266,22679.5,31907.0,34955.5,33616.1,33405.6,41873.0,42884.6,34129.5,57271.4,31160.7,19904.4,123302.6,44046.7,19642.7,44283.1,59534.9,53214.0,42435.8,27038.4,0.0,26123.2,
379,0.252,13955.9,21093.1,26321.6,23781.2,22579.0,26351.7,26438.2,18942.5,27061.0,23407.9,7951.2,33780.2,28622.1,11523.0,18377.8,24368.9,26398.7,25400.0,23672.1,0.0,34723.3,
380,0.234,7334.7,7555.0,9975.3,7913.0,8016.2,8536.6,8583.9,5072.6,8264.1,10583.4,8339.0,9858.4,11346.2,6106.6,6843.4,8598.4,11118.2,10981.7,8663.3,0.0,18712.2,
381,0.222,12415.3,12751.9,16087.7,15179.8,13820.7,15718.9,15775.9,16159.5,16283.2,29124.6,6653.5,20086.7,20165.2,9915.2,13353.2,10533.7,19639.7,18674.9,27078.0,0.0,30876.7,
382,0.237,15213.6,20839.5,21874.3,25897.4,21466.4,24718.5,26153.2,16054.5,28883.3,23952.6,13613.4,48194.9,35293.4,8998.0,19721.9,29564.1,22726.5,28952.9,28480.4,0.0,21642.1,
383,0.214,11937.6,14162.7,13815.3,12562.6,17482.3,19301.3,16733.2,15326.1,30029.8,24931.7,12404.2,69658.7,37799.1,11550.2,20374.8,28658.0,34833.4,23265.5,19910.3,0.0,23682.1,
384,0.263,7790.6,9504.3,10994.7,12280.2,9922.0,12555.5,14240.9,7193.9,17851.2,17671.1,13346.2,44611.3,29633.1,6148.8,8776.7,22661.8,28364.0,18863.5,16684.8,0.0,17051.4,
385,0.238,15621.1,16086.2,19577.9,16910.4,17764.1,21412.2,17880.5,20114.0,28350.9,20958.6,21508.8,27458.7,25489.6,22047.9,16632.8,17354.2,20428.6,22814.7,21508.2,0.0,39791.5,
386,0.23,10336.8,12353.5,13745.8,14212.0,10529.8,12639.9,14061.2,8924.3,12954.6,15209.8,11803.7,15982.9,17770.7,11452.4,10788.5,14429.5,20332.2,16560.4,15907.2,0.0,30753.0,
387,0.202,10352.1,10262.4,11345.3,14125.3,10403.1,11468.4,12873.5,11487.5,13975.1,22878.3,10623.6,22214.8,22423.5,10380.7,13868.9,17197.0,24769.7,16202.5,24203.2,0.0,29490.1,
388,0.293,20541.4,28632.1,33674.5,28630.7,25145.6,32319.0,27842.8,16588.6,29917.6,27716.0,20977.2,32511.1,24000.4,17374.1,13678.2,18846.2,23648.9,25316.6,31647.5,0.0,26572.2,
389,0.527,5488.2,6884.6,8664.6,10375.5,7998.0,8576.1,10311.6,9542.6,11124.9,10532.7,8825.7,11721.8,11665.3,8835.0,7924.9,9688.8,12039.5,11893.8,11223.6,0.0,13716.3,
390,0.267,11412.4,9649.5,11327.5,9438.4,10985.6,11959.3,9204.2,11215.7,12104.9,9731.5,13844.5,25119.9,12942.2,12099.9,14479.2,43572.0,25281.8,10919.8,12463.0,0.0,26719.9,
391,0.253,14485.7,24001.4,27005.3,22093.9,22021.8,30472.0,29282.2,10363.5,22451.1,14567.1,15014.0,63388.1,10298.1,6203.0,13620.3,103225.5,107240.1,17853.9,17392.4,0.0,11695.3,
392,0.272,29407.8,36190.8,38045.7,29398.7,35373.2,41290.1,36613.9,16540.6,28847.8,14479.6,9531.2,131475.5,38140.9,12146.1,18237.5,97687.9,95382.5,22520.4,15594.8,0.0,26233.4,
393,0.329,30724.2,40223.5,43598.1,37553.3,37783.1,39883.0,39588.4,30277.8,43161.8,26806.8,20240.8,108857.4,43776.3,29063.0,33862.8,77235.2,83430.2,35542.2,31238.8,0.0,25353.8,
394,0.236,10869.7,13823.7,14038.1,10817.3,22240.9,22399.0,20728.2,20121.1,33782.9,23381.3,6624.1,84737.9,37672.1,12683.2,19111.8,22643.0,48316.6,19877.4,17044.2,0.0,13081.9,
395,0.398,13353.6,21105.6,23612.0,21302.3,23867.0,27474.5,25027.9,17063.6,26611.4,26767.8,7334.1,34851.5,25086.6,9092.2,10958.0,35197.6,77618.5,21653.5,20846.0,0.0,17108.8,
396,0.246,8497.7,12365.1,13028.9,10894.7,14400.2,19226.2,17380.5,8369.2,16927.2,39953.7,13116.4,77891.0,43264.5,5566.6,16882.0,94097.3,148368.6,15817.0,17251.3,0.0,14717.8,
397,3.919,25271.0,31761.1,36605.0,33506.3,31313.0,33812.3,33263.6,20625.2,29994.2,28439.8,10616.3,113746.6,48093.9,16791.5,16456.3,86589.5,167688.3,26308.5,25738.7,0.0,23941.0,
398,0.909,10784.2,13712.1,17550.2,18958.1,18414.2,22126.3,24053.0,20737.4,39171.5,24366.5,18039.9,124015.5,50501.7,8958.3,42171.9,107804.8,78026.1,31944.7,27173.4,0.0,18711.9,Attention dropping back a little bit down.
399,0.334,4549.9,4961.7,7773.8,8520.8,6981.8,9129.6,9850.2,7393.3,15226.9,18624.1,8787.6,62779.1,36246.3,6755.9,14461.8,36933.6,48840.9,15595.8,15091.9,0.0,18459.2,
400,0.872,16313.5,22145.2,21849.6,20576.0,20598.2,22075.8,21176.9,11961.0,20020.6,28522.3,12078.6,26283.3,25339.4,12116.9,12962.4,46828.6,60356.3,19633.6,19170.8,0.0,19333.1,
401,1.488,22878.9,32005.0,38391.9,31263.5,27398.3,32378.9,33231.7,25516.3,28330.0,28298.5,15651.5,31447.8,24277.1,15594.0,22711.8,53185.1,19712.6,32852.4,31716.0,0.0,25685.6,
402,0.332,6771.3,12837.7,14487.3,11505.5,11971.2,15299.9,15053.4,12320.4,27027.7,32660.8,14572.7,102314.3,45141.7,9492.0,32359.1,62855.1,107749.3,20281.3,15050.2,0.0,19817.6,
403,0.302,26606.1,30061.2,26772.6,22848.6,28991.6,28021.4,27123.9,27646.9,33601.0,41909.2,28835.8,151315.5,81543.3,22045.4,47465.0,123103.1,183937.6,28252.8,23796.7,0.0,50172.4,
404,0.489,17028.4,17334.6,14000.1,21666.5,15090.3,17292.7,18012.2,12509.9,17862.0,34546.2,10847.7,98413.2,47329.1,9460.9,20835.7,75998.7,131910.5,21602.5,24855.3,0.0,20834.8,
405,0.242,16938.5,24095.7,21521.6,13454.3,20327.1,22094.1,19735.2,15652.7,21241.3,18754.7,15176.2,44592.1,23911.0,8553.6,18360.4,66532.0,72431.6,11614.3,8754.3,0.0,30023.8,
406,0.32,17703.6,23230.7,22222.1,18197.8,23065.9,27720.2,24550.8,21004.2,30660.3,45069.6,27364.7,159251.7,73800.9,15047.0,47818.8,158429.3,197414.3,23868.1,17461.6,0.0,34423.8,
407,0.82,25047.1,39705.2,42995.0,33352.1,35373.4,45310.6,41614.2,17426.4,33058.8,27220.2,11944.7,108777.4,37223.5,10071.7,17566.7,90944.0,111113.7,27627.1,22948.4,0.0,25744.9,
408,0.238,19362.3,26076.6,25798.8,18429.8,25299.9,27887.9,25943.4,12950.3,21247.6,33382.3,8351.0,78332.6,34441.9,9767.2,10382.4,81199.2,131659.3,17503.4,24836.9,0.0,28676.3,
409,0.34,13714.2,14376.4,12591.0,9946.2,15521.9,14588.5,13293.7,18271.8,21032.0,22400.2,24131.4,135975.9,48400.1,13088.1,36943.4,104359.2,127753.8,15497.0,11825.5,0.0,43753.7,
410,0.235,19415.9,19467.9,22330.7,21947.0,22812.0,26528.1,28400.4,19183.8,28357.1,34639.0,8094.3,59710.8,48316.3,12076.1,12998.0,29487.8,103929.2,27717.9,19236.7,0.0,29295.5,
411,0.25,9491.2,7016.4,11036.7,13399.9,9024.2,11030.7,12828.0,9951.6,13731.4,28803.1,14344.3,20683.6,27370.3,7961.4,18451.0,73989.1,56746.9,14939.5,14652.2,0.0,26213.7,
412,0.213,11853.2,16300.6,14602.6,10335.5,17155.0,19675.6,17920.0,14846.2,29385.1,17469.5,23593.7,139052.6,40355.9,12244.9,37012.5,140039.7,90965.4,15730.8,8732.0,0.0,20104.5,
413,0.464,13910.1,19284.2,29775.8,27661.0,21552.2,26110.6,29005.5,12137.4,17606.0,28449.4,15531.4,66999.8,33725.3,10885.1,21837.5,102441.5,118489.1,17732.3,22704.3,0.0,21318.1,
414,27.318,21945.1,37051.2,35583.5,24353.4,32143.3,38554.2,36274.6,27729.7,37842.4,29829.8,20622.4,82215.4,51222.9,15716.4,29277.4,116974.8,148867.6,30349.4,19283.7,0.0,33918.9,
415,0.391,25679.9,28684.8,26402.0,24152.6,28377.7,30021.2,27725.6,22043.3,35766.1,47129.7,10775.0,84948.1,60956.2,12464.2,14052.2,54368.2,198782.0,24311.0,19046.3,0.0,18035.9,
416,0.25,18083.2,21437.6,17240.9,13107.2,20800.5,19176.5,16391.8,13405.2,23228.3,29178.0,12752.0,93427.7,44342.4,9014.5,24877.4,93993.1,140839.2,15328.2,11860.8,0.0,15466.2,
417,0.377,25016.9,27973.2,22862.6,16553.7,27940.5,26834.6,22829.0,16448.8,17534.3,34073.6,6831.0,57774.0,39817.7,14080.6,9847.1,69720.8,177486.3,13795.8,13510.8,0.0,29280.6,I'm battling tranquility and equity.
418,0.243,15852.5,20852.2,23806.5,20638.8,22466.0,25328.0,27374.8,19391.9,25427.5,19024.4,11881.7,32080.3,20273.3,13034.3,13276.8,56593.9,77702.9,20266.0,10823.1,0.0,15735.3,
419,0.285,7745.2,8393.2,5181.1,6212.1,8823.3,7273.5,5213.0,8944.7,9620.7,34737.9,6992.5,21540.1,25110.3,9215.3,9363.7,56175.1,107698.8,8327.9,11918.9,0.0,24744.5,
420,0.343,16061.9,17675.5,17769.5,19298.9,22648.8,27163.9,21084.0,14987.3,30981.3,22494.1,9025.7,72672.6,26128.2,8280.9,17415.2,73321.7,97711.7,17820.9,10568.5,0.0,25825.1,
421,0.934,38284.7,42591.4,47790.0,50729.4,42682.1,48128.8,52710.4,37718.1,49699.2,29913.3,19082.2,70689.0,37698.8,28311.1,34109.3,61630.2,33154.0,47428.9,48302.2,0.0,25843.2,
422,0.509,12445.0,16616.3,23068.4,21375.9,18565.2,23419.4,23821.8,21562.4,39315.7,11645.6,35454.4,166550.3,36804.8,15211.7,62468.5,181814.9,96015.6,21433.3,13226.9,0.0,30455.3,
423,0.373,12060.6,15744.8,15672.6,13215.4,14138.6,16249.7,16693.5,11340.5,21182.5,31693.1,28039.1,61642.0,25974.1,9546.9,27620.2,135695.3,62074.5,19293.5,18757.7,0.0,37560.1,
424,0.333,14603.6,16635.7,14486.8,11913.1,13988.7,15043.6,12170.1,15466.8,16897.5,15235.8,10248.0,49691.9,18477.9,13023.5,21625.7,73205.3,78147.4,9607.8,11286.9,0.0,13873.6,
425,0.452,15839.2,16372.5,12286.9,18405.6,21084.2,21552.9,19760.6,21300.2,25198.5,21496.6,25554.5,65461.9,24642.9,12069.3,27754.0,95551.1,37259.0,24466.5,16544.6,0.0,24891.6,
426,0.527,16572.0,17878.9,24299.5,29237.5,21346.2,23784.7,25944.8,16717.6,23528.8,62140.5,23887.3,56568.1,37033.9,10250.1,23056.8,96351.2,72399.0,29223.3,41232.0,0.0,24043.9,
427,0.313,30098.6,31336.2,37996.7,31995.5,32271.6,35040.5,36820.4,24113.9,37105.4,28115.3,17889.9,18494.6,19673.7,22309.3,17399.1,52937.0,52270.5,33336.1,31124.6,0.0,46947.2,
428,0.217,10611.9,10914.2,11798.7,12534.7,11271.1,13351.3,11397.5,10068.3,11920.8,7783.7,9768.7,10145.8,7724.5,10729.8,10138.4,10569.9,10746.2,10501.0,9809.7,0.0,21183.1,
429,0.28,25999.9,34582.3,43255.4,41639.9,43589.4,56294.9,62166.0,38687.7,64129.5,31201.1,27398.1,62119.4,46047.3,21710.0,39712.8,107158.3,51707.8,56077.8,36321.9,0.0,31795.9,
430,0.205,16011.7,22143.0,25284.2,27253.4,25226.5,31484.9,32811.4,22185.7,44322.0,56878.9,27766.4,106806.6,61699.3,15937.8,36718.1,112333.9,112572.0,47458.7,40801.0,0.0,37469.1,
431,0.228,15741.3,30499.1,31956.8,25424.1,31282.2,39604.7,33228.9,19942.6,38716.5,21427.1,12182.0,90443.2,21514.1,10150.4,21565.3,95402.5,82783.3,21708.5,16885.7,0.0,21620.2,
432,0.209,24216.9,24088.3,22862.9,17919.9,27939.8,29778.4,25540.1,19153.7,31814.0,35970.9,17271.8,112028.3,44169.0,13453.1,24729.9,79559.8,120465.6,23515.4,19267.4,0.0,25829.5,
433,0.246,6979.8,10248.9,15392.8,17098.1,13080.2,19276.0,20341.1,15323.1,26555.8,37621.7,26592.8,67376.3,33254.8,14549.7,23752.7,57446.6,32771.3,24346.9,26735.2,0.0,23360.6,
434,0.211,16861.9,19740.6,21958.0,20049.6,25725.9,28172.1,23911.2,24455.5,41541.8,9442.8,13492.2,75754.0,26726.9,13202.1,26396.5,29777.6,17259.4,23782.5,11752.5,0.0,21405.9,
435,0.303,24779.2,28016.7,28897.3,30218.4,28731.8,32167.1,31803.9,22100.4,30733.0,33293.6,22240.9,74408.5,32841.1,17670.1,33405.7,93309.1,56130.5,30430.2,31251.4,0.0,14740.3,
436,0.296,12186.1,22555.2,27009.5,20093.2,25726.7,32212.1,30599.4,16624.7,42372.8,34453.1,9840.5,179021.2,66954.9,7004.5,25957.5,116680.4,170318.2,28678.6,15348.1,0.0,18485.0,
437,0.25,15024.9,15661.7,15232.7,16924.5,13443.3,14937.7,14190.9,12527.6,14310.5,18351.0,13275.9,43783.4,22571.9,13002.7,18771.7,31581.5,36469.0,13345.6,17919.7,0.0,23327.3,
438,0.399,10166.4,11706.5,15733.9,15870.7,15605.9,18654.7,17345.7,13847.6,20661.5,13943.0,9595.2,42721.0,18369.5,8949.1,18242.8,25776.4,21236.8,17464.8,15280.8,0.0,10605.1,
439,0.31,13566.8,20135.8,25683.1,27202.0,22723.6,27548.0,31428.1,19551.5,38082.7,22251.6,12735.5,122665.7,51142.2,10128.7,32927.0,98564.5,48311.0,38672.1,35515.7,0.0,13585.0,
440,0.209,19407.6,20894.2,21142.8,16984.1,24607.1,23851.8,25684.6,20087.6,34005.7,25284.1,14458.1,120527.3,59719.4,13636.4,24074.0,64479.5,78301.5,33271.3,18616.6,0.0,24049.0,
441,0.481,16245.2,23247.0,26125.8,19662.8,18884.2,22825.5,20665.4,11337.5,14916.4,33965.2,16174.3,166351.4,57885.2,11110.5,19547.3,123971.6,189117.1,14122.9,18327.1,0.0,32690.2,
442,0.27,25800.8,26168.0,27059.6,21518.8,27292.6,28321.1,26030.2,22215.9,31025.2,32966.0,14128.3,101787.1,54088.9,17515.8,22262.3,60378.8,118371.8,24896.4,20809.6,0.0,29044.6,
443,0.248,12390.3,15185.2,15537.9,19797.9,16887.4,17710.0,18786.9,11227.7,23115.7,36220.8,19034.0,74910.3,39344.0,10247.0,20999.4,65571.8,93763.3,24230.7,27129.8,0.0,14705.0,
444,0.308,40555.7,52963.0,64023.9,58773.0,60149.9,71650.9,75369.2,44875.7,80457.4,42890.5,20298.4,92636.6,59073.6,22274.2,22446.8,57562.1,98317.1,72580.5,48982.3,0.0,32171.1,
445,0.217,17338.7,21845.1,23409.9,24639.9,23649.2,26865.4,24686.8,16527.1,34701.1,21774.9,5021.2,115129.6,46571.4,10339.7,14935.3,52428.2,85306.5,26817.1,21908.6,0.0,34984.2,
446,0.209,10765.9,10178.3,10566.9,12425.0,13881.0,14355.9,13815.5,17168.0,23614.8,17131.3,10473.8,55799.1,17487.2,9462.5,20649.6,45052.3,27693.4,13226.4,14093.0,0.0,16259.0,
447,0.198,10193.3,11280.8,13558.7,16484.6,11559.1,13778.6,14657.3,10514.4,14063.7,31042.6,19761.4,88483.0,37347.8,14444.2,24548.2,89037.7,92442.9,14128.7,21610.3,0.0,44199.9,
448,0.246,10755.7,12704.3,13670.5,14382.6,16940.4,21404.8,23224.4,21305.1,50140.0,20244.6,9806.6,107068.2,34206.9,9409.0,22377.1,48749.4,84257.6,25579.1,12782.1,0.0,26704.1,
449,0.196,8246.5,8870.9,10445.0,8737.4,9862.7,9863.2,8437.8,10821.9,11064.4,28145.0,14982.1,36224.1,32264.3,11559.7,22677.0,59935.4,64852.1,11097.3,13926.0,0.0,23633.8,
450,0.262,18442.3,18332.2,14371.7,13223.5,13690.1,13765.0,11896.5,12020.8,11431.8,29419.0,13073.2,41513.8,22245.6,13073.0,14815.3,53331.1,48510.5,14074.4,19731.9,0.0,25765.6,
451,0.223,7465.5,8909.9,11290.4,13445.2,9312.3,10520.9,13807.4,7069.2,13476.0,33317.2,9598.6,37477.2,31475.4,5871.9,14787.0,25073.7,35926.9,21674.8,19738.3,0.0,20130.6,
452,0.193,10790.6,14920.0,15492.4,15806.9,12593.4,13376.8,12170.9,7895.2,9424.8,18823.4,10782.5,29162.9,11136.8,6555.2,9889.2,37581.8,18763.8,12979.4,17222.0,0.0,22776.5,
453,0.28,27398.6,37848.2,43649.5,41846.8,35768.7,43636.8,44922.5,24890.4,40433.1,29097.3,25304.8,41967.1,22003.4,22525.8,25514.3,75785.8,34377.0,39021.2,42381.3,0.0,35702.8,
454,0.232,16636.8,20914.0,26269.3,27265.0,21066.5,27912.0,29411.6,15521.4,36020.8,34257.1,12629.1,98139.5,45390.4,11154.0,24334.3,82769.9,93875.4,33639.6,30545.9,0.0,24489.1,
455,0.205,13135.8,21649.5,25694.8,26236.4,21066.4,23863.4,23097.1,14636.2,16751.6,24997.8,22927.3,108055.6,39649.9,10773.9,32489.0,90109.2,54734.8,18982.3,26757.6,0.0,33965.4,
456,0.19,16491.2,21867.1,19891.5,14401.5,26369.4,26693.6,20279.8,19271.4,27971.5,31700.8,6033.2,125579.5,63728.9,9852.2,17692.4,64448.1,130205.0,19658.1,15786.2,0.0,10653.1,
457,0.201,16100.6,22188.6,27084.1,21671.0,20494.2,24871.4,27216.2,11910.2,18402.8,21365.3,22118.6,72181.0,29338.4,7956.6,29084.0,98658.2,52858.8,20907.0,18436.2,0.0,35388.1,
458,0.175,12816.7,19361.7,19268.1,19494.3,18234.1,23289.6,21674.5,13925.7,23356.5,25369.9,10547.2,53261.5,41849.1,9204.5,18268.1,47356.8,43743.5,23396.9,19833.1,0.0,24087.2,
459,0.632,11042.2,15540.8,21120.7,23763.5,14261.3,16847.6,20212.2,9892.3,18036.1,32965.2,18114.9,85285.3,35983.6,8874.8,26038.5,102504.7,112956.9,21125.3,25987.5,0.0,25375.2,
460,0.422,28166.1,38141.5,41457.0,39408.2,38128.9,45225.8,46897.0,22705.1,41413.8,25895.2,12876.7,138654.7,48563.8,16844.1,23288.4,147186.0,163184.4,40592.7,30625.4,0.0,36884.3,Deepening the nose.
461,1.022,29001.9,33961.1,32526.1,21274.7,36587.7,37593.4,34785.2,30700.3,43792.8,38201.6,17038.7,116076.3,51422.1,17484.4,28604.8,85302.9,114429.6,44092.9,24504.9,0.0,22918.7,
462,0.199,17964.2,17491.7,13880.3,12412.2,21949.0,22721.7,20466.4,14732.1,32037.6,25463.4,15614.5,97843.8,45411.7,11061.0,27256.2,93594.2,118233.4,27833.9,14261.1,0.0,23162.2,
463,0.386,34974.8,32710.0,27933.0,30071.3,33808.1,35996.0,33949.6,30681.1,51013.7,50016.7,16342.8,168289.7,102966.4,24279.3,31927.0,77978.0,156558.0,44738.7,36519.8,0.0,16524.7,
464,0.226,34508.9,52166.2,60989.7,63458.8,57469.5,73354.6,72041.7,38385.2,89860.4,24280.6,28591.6,216984.6,58620.6,23233.8,64725.8,147586.9,64733.9,71291.7,48064.8,0.0,32010.0,
465,0.244,21913.0,25643.8,24545.0,23999.0,31942.0,34436.0,35834.1,29116.8,54332.4,28254.7,18988.4,179230.9,78083.6,18150.5,37501.9,100123.8,98538.9,42762.0,28310.2,0.0,33966.9,
466,0.222,18551.9,32535.0,43866.6,42393.6,34158.3,45096.0,48715.4,16709.5,43439.2,34356.8,19036.5,109863.8,46268.7,16197.8,22369.2,71982.8,90235.3,43628.1,36167.3,0.0,31123.1,
467,0.256,28320.7,40192.7,40603.0,34570.4,38912.2,44395.6,44515.6,23779.5,50831.0,29940.0,11316.8,92682.6,63515.9,18286.9,14988.4,38780.8,34177.4,44962.8,34391.1,0.0,33662.7,
468,0.249,21962.9,33001.7,33971.0,27559.3,34557.7,42150.1,41268.5,22695.9,43043.4,66364.3,14673.2,179070.2,103074.9,15588.3,23651.5,118342.9,219401.2,38972.7,31123.6,0.0,28808.0,
469,0.232,24360.5,24153.6,25049.4,21586.9,25940.9,24614.7,22908.7,21956.6,25226.6,55469.3,28797.2,123754.9,62574.9,20246.9,43458.4,141991.3,154497.3,21536.1,23028.9,0.0,30745.0,
470,0.238,22260.4,26882.7,30025.7,29906.2,27772.8,31473.9,32482.2,19404.6,37681.7,38018.3,42754.2,167084.3,74199.5,16544.4,43276.6,208643.5,172227.9,33495.9,30270.4,0.0,35482.6,
471,0.229,13535.9,21282.2,24551.7,19596.1,24123.3,31354.5,28869.0,9984.0,26512.5,40736.2,15047.6,120808.3,59640.7,6835.7,23283.4,100444.4,162851.1,23075.0,20561.7,0.0,24698.0,
472,0.321,30236.2,35343.8,32808.5,27423.2,41598.1,42934.0,34853.1,27792.6,42682.4,35051.3,8698.0,167726.5,79674.1,19701.2,26559.0,83759.8,102195.4,33043.2,23805.5,0.0,25050.4,
473,0.204,7479.1,11560.3,9648.0,8519.4,10092.3,10093.6,8667.5,11220.8,15483.9,18387.1,10130.2,25539.6,17593.4,7027.6,10158.0,12879.4,36191.4,9257.2,11560.3,0.0,21113.7,
474,0.257,12600.5,15099.4,17746.3,19260.5,17092.2,21112.7,21514.7,15811.6,23980.8,28201.9,15713.5,25726.7,27244.6,14487.8,16579.7,17260.0,30745.1,25154.9,22532.3,0.0,28968.3,
475,0.249,6310.2,7251.4,10419.6,11738.1,9805.8,10999.7,13854.9,8038.2,13550.9,16177.4,13446.5,28412.5,20267.2,8272.3,10679.0,20856.9,22394.0,15884.0,13200.1,0.0,12387.8,Attention coming back up toward the visual field.
476,0.504,23024.8,23407.6,23270.8,20563.2,23368.4,23810.9,22012.1,23870.7,21668.1,12571.5,16784.5,15516.1,14826.2,20631.6,19812.4,15132.0,10717.2,17798.3,15913.2,0.0,34183.1,
477,0.47,24044.6,24372.1,22427.3,16801.3,22691.5,22510.4,18690.0,20003.8,26508.4,29012.1,14601.3,21445.0,17819.2,17664.2,19438.9,46086.6,56110.6,18243.5,17708.1,0.0,28234.9,
478,1.184,19532.3,21194.7,19538.9,14910.0,21920.6,23710.6,20482.2,17606.9,18812.4,9694.9,14587.8,19195.9,14510.2,13458.1,17381.7,14937.5,13885.8,22744.7,11880.1,0.0,32518.7,
479,0.213,11322.2,14452.2,14200.1,10566.2,12851.4,12821.3,11193.2,8139.5,11619.7,8575.5,10911.2,16208.7,10654.9,9879.7,10100.6,15413.2,10382.9,8628.7,10486.2,0.0,30365.3,
480,0.325,12043.7,12410.7,13243.9,14179.9,11402.0,11881.2,12413.3,12894.4,12548.1,13095.3,13902.1,23161.2,15067.6,11343.0,14940.1,17116.5,17084.3,15474.4,12559.5,0.0,21327.6,
481,0.214,11194.3,11201.6,12209.7,10977.1,10575.5,11781.3,11868.3,12001.5,10623.9,22338.4,11878.3,13483.7,13687.6,13851.7,10010.0,18184.1,23132.6,11702.7,15416.5,0.0,26235.8,
482,0.304,21643.2,18638.0,17485.1,15897.9,20273.1,16250.9,15858.2,24051.4,20366.2,15482.5,17126.9,19032.0,16254.6,20720.4,21733.2,15178.9,15565.9,15995.1,17933.8,0.0,17961.0,
483,0.708,5103.5,6213.0,7708.5,8987.8,5291.5,7026.2,7117.0,3404.7,8771.4,6357.8,3367.5,7845.0,6081.1,3482.1,3643.4,4638.0,5392.6,6872.8,12720.6,0.0,15558.3,
484,0.429,21035.8,23011.0,31347.0,30063.3,23666.3,25888.9,27926.0,20051.5,25489.1,29461.7,21206.8,24965.2,27887.3,20011.4,22410.8,25622.4,24264.4,28998.7,35722.2,0.0,19728.3,
485,0.237,5953.7,6607.2,7446.4,9420.1,9427.8,8235.1,8152.6,10605.4,10494.3,8136.4,16884.4,14371.3,8465.5,10502.6,16484.9,14096.2,8184.2,7440.5,9511.6,0.0,21767.8,
486,0.251,9478.5,14324.6,19674.8,21343.7,11925.4,14894.0,21208.1,10682.9,18698.5,16253.1,6685.5,27317.3,24876.8,9958.2,10103.4,16340.7,22670.1,24684.4,21054.4,0.0,21751.0,
487,0.241,5354.1,6016.7,4913.1,6677.9,5396.4,6259.9,5147.6,7093.8,8098.0,8724.3,8941.9,18539.3,13586.1,5124.9,9150.9,33264.4,24581.8,7505.1,7942.3,0.0,13707.4,
488,0.245,8825.3,6193.5,6322.1,6151.1,7096.1,7255.6,7355.0,8395.6,9762.8,11072.8,12809.6,19571.1,10327.0,10783.6,12451.1,28969.0,10222.1,8046.6,6960.3,0.0,24637.7,
489,0.201,12008.0,10763.1,11913.8,11700.9,10877.9,13009.5,12942.9,11390.6,14085.8,18268.9,9415.0,20053.0,19711.5,7591.4,10752.0,12556.8,18453.4,14555.5,15987.8,0.0,16560.0,
490,0.238,13642.1,15014.1,18237.4,16603.8,13431.6,16050.4,15756.0,11195.8,15913.5,18101.6,9563.7,27733.9,20493.6,9524.7,7477.2,15530.9,28846.7,17197.2,19756.1,0.0,34900.4,
491,0.257,6575.5,6456.5,6985.6,7506.2,5539.4,5346.6,5991.2,7366.9,8195.0,6296.9,5523.1,8119.3,7198.3,7039.9,10631.4,7840.3,7810.0,5204.8,8674.9,0.0,18938.8,
492,0.193,7485.2,9707.8,7207.8,5794.1,9263.1,8787.4,8241.6,7927.1,10575.7,12428.3,5859.9,7690.0,7184.0,5016.8,6439.7,7422.7,12718.8,7041.7,11861.7,0.0,22870.8,
493,0.2,14284.7,16231.4,18236.9,16573.0,20455.7,19417.1,18669.4,21744.8,25782.5,12521.4,15204.4,19266.4,15715.8,14518.6,19327.8,16159.6,11805.1,17114.0,17068.8,0.0,29555.3,
494,0.272,12769.9,16638.4,14313.6,14705.1,15539.1,17721.7,18535.8,13159.9,22723.3,18492.6,9362.0,23124.1,22520.1,10410.8,10863.4,12583.8,21118.0,18015.0,17864.8,0.0,15744.4,
495,0.213,9391.0,12347.5,10986.7,11290.5,11692.2,12708.6,11272.5,11381.8,12729.5,16201.9,9288.9,11808.4,14069.2,8769.1,10011.5,8006.5,12982.7,12415.3,14083.4,0.0,25929.6,Its getting a little lighter - like a light blueish gray with the purple and pink and amber.
496,0.24,12688.5,14788.2,17040.2,22244.3,16060.5,18598.9,18894.4,14545.0,20663.1,16318.3,12724.2,18197.5,22723.8,10763.6,16158.4,13861.8,15730.9,22974.8,24715.6,0.0,20728.7,
497,1.476,15973.7,31137.6,27004.1,21503.2,17520.9,20891.1,18835.2,13644.4,15032.5,20694.7,6480.6,10608.8,16364.2,7919.2,6708.2,24836.1,46562.6,14863.2,15260.4,0.0,23892.6,
498,0.545,15300.2,16861.6,18610.6,19582.5,14345.2,16050.1,16166.5,12731.4,17469.8,17006.9,14727.9,31773.5,20758.9,14110.3,16590.0,43178.3,40380.2,17150.6,19255.9,0.0,44406.3,
499,0.679,16504.0,28090.9,36751.4,32837.4,22841.4,29743.0,33257.8,14550.5,27788.8,33387.4,11882.8,32145.2,39580.6,12692.0,16857.2,26829.0,43890.5,34643.2,32574.8,0.0,34361.8,
500,0.49,24087.4,27719.4,28661.5,30318.4,31529.5,30572.5,34872.4,30584.8,31988.0,34183.4,23639.9,19080.1,33709.0,18939.4,24894.1,17728.2,27977.8,41419.4,32503.2,0.0,51983.4,
501,0.831,8744.2,12262.0,14379.6,10694.3,12329.4,16471.8,14589.3,13376.0,17087.5,7847.2,10258.0,42801.7,14148.9,10307.8,15543.7,22661.3,23767.9,12937.1,9533.4,0.0,13296.2,
502,0.918,14622.4,15452.6,14250.2,11984.3,14847.3,16332.5,16037.9,13324.5,16235.0,15018.9,11057.7,12245.8,12603.8,13400.7,12427.9,13107.6,10766.2,15474.9,18577.6,0.0,40391.5,
503,0.861,10548.2,9855.7,13990.9,20664.2,11653.3,10837.5,14491.6,12456.4,13912.2,18274.1,7737.7,12758.2,14262.8,7724.9,10024.4,11337.0,13160.6,20550.1,22899.7,0.0,25731.8,
504,0.428,7809.8,9854.2,11013.0,9272.4,9176.6,12207.0,10899.1,7794.3,9455.2,9076.9,7693.1,6079.2,8403.5,6190.7,5101.7,10166.3,9011.6,8309.8,9676.7,0.0,15125.7,
505,0.188,8827.2,8022.4,13347.0,15678.3,8136.2,11285.4,12431.9,10559.3,13202.5,13983.9,8630.3,16150.6,14426.1,7752.6,10190.2,15906.0,9012.6,15545.0,19076.5,0.0,25226.3,
506,0.206,8805.7,9549.1,8680.3,6328.6,12446.8,12561.7,8539.9,10535.0,12223.6,10287.5,8896.1,10818.0,10932.7,8281.3,9868.9,13369.1,11260.3,9035.6,11495.1,0.0,29017.7,
507,0.185,11118.2,14820.9,15213.3,17078.4,13346.0,16389.3,17781.6,10241.9,16305.4,16131.0,14030.0,22549.4,20277.4,10623.6,12188.2,16829.9,25676.2,17632.4,18126.5,0.0,20576.4,
508,0.177,11630.2,13118.4,16915.6,16311.5,14025.0,15575.8,16187.7,14650.2,14146.5,11675.9,8193.9,14113.6,13361.0,9094.1,13713.3,7094.9,7854.4,15055.2,19165.8,0.0,27087.4,
509,0.234,5339.6,9860.2,9540.9,9289.8,8784.7,11821.3,12232.9,7431.2,14832.5,7366.6,7107.5,13246.2,11452.0,4617.8,7397.8,12805.0,12679.4,11335.1,7979.8,0.0,20035.7,
510,0.378,13552.4,14498.7,14077.7,15529.0,14272.2,17638.4,15839.4,9211.9,14186.2,14774.5,10678.7,13577.6,16806.5,12642.2,9692.2,12218.3,16063.7,16472.6,16621.0,0.0,39252.5,
511,0.462,4934.2,6578.6,8170.9,9584.5,7687.8,7796.8,7860.9,5536.0,6463.4,9029.2,4005.1,5722.4,6047.9,5537.5,4694.1,6117.5,6507.3,7517.6,9955.5,0.0,13434.5,
512,0.208,8171.0,7967.5,7717.5,6808.8,8661.5,8020.7,7813.7,9780.2,10216.5,10185.4,12670.2,42715.6,13340.4,8967.7,20403.6,45587.9,23936.8,7365.0,13042.8,0.0,19817.3,
513,0.422,11397.2,12087.9,13058.3,12308.3,10514.1,12182.6,13363.6,9409.3,11796.9,12632.1,10211.6,15113.9,11863.4,9763.4,12001.7,15288.3,18279.6,14290.3,13819.5,0.0,14632.1,
514,0.241,12787.0,17657.4,16586.4,16372.6,17666.7,23257.2,21035.2,13679.4,25003.7,14005.8,6332.2,44729.9,19029.9,7922.0,7139.0,56446.8,85360.9,16285.5,10067.0,0.0,14304.7,
515,0.28,11618.8,14652.6,15201.5,15529.1,16757.4,20098.5,18648.1,14997.7,25239.6,35904.3,7881.4,57809.2,42317.9,5983.9,12204.6,47161.8,62381.9,21831.7,17035.1,0.0,26543.8,
516,0.274,9794.3,8629.3,9179.9,8464.8,10087.4,9601.9,7203.3,10122.9,12112.1,9596.8,9211.0,25044.1,12761.1,10568.9,10173.9,15825.2,11943.5,7875.0,8687.0,0.0,33762.2,
517,0.222,15339.0,17970.0,19625.0,22562.8,16450.6,17565.5,18016.6,18112.6,18649.0,29897.6,20778.5,20575.7,21858.9,16318.1,20150.2,22060.5,26199.2,21076.5,26878.8,0.0,11730.8,Very fine - flowy - fluxy - like glitter or glitter silk.
518,0.767,7581.9,8721.0,8187.5,8428.7,7299.7,7194.6,7019.5,7255.2,9480.3,10157.7,6669.9,15149.8,9123.0,7203.4,9120.0,11372.0,11205.7,7573.4,9976.6,0.0,24232.6,
519,0.441,15122.5,16643.5,21718.0,25739.5,14440.5,16501.8,18198.1,15312.1,13492.8,30405.5,11104.7,20239.0,26463.7,14245.1,13384.5,15684.0,42698.5,21092.3,28584.0,0.0,35574.3,
520,0.711,20432.9,28457.7,27328.2,22547.2,22423.0,22386.8,21840.4,19051.5,23992.8,24977.9,10510.7,29212.0,34704.3,10009.8,16408.3,11046.7,25788.1,25926.9,26495.7,0.0,18928.2,
521,0.297,11757.1,16678.6,18615.4,21211.3,14169.6,15512.4,16581.8,13854.7,17314.3,23890.0,8585.3,27750.5,25997.8,8124.4,12678.1,13893.8,50643.2,17941.7,20872.3,0.0,22764.8,
522,0.395,11301.1,13951.2,15511.9,16106.9,15086.3,17184.4,18515.1,13767.9,29064.0,31414.6,9810.6,104940.5,60298.5,8530.6,22375.1,36837.7,87190.8,25987.2,16877.8,0.0,18932.1,
523,0.25,8453.1,10241.1,8993.6,8499.1,9506.1,10018.0,8079.1,7879.0,10116.6,12086.1,12282.4,14894.9,12373.3,6226.7,10238.4,17492.5,16063.0,9939.2,17385.1,0.0,26023.7,
524,0.198,15098.1,17471.6,18582.7,19038.5,15784.6,17373.2,17582.9,13717.7,21950.7,16089.5,13495.7,64525.5,26048.4,10802.0,18719.8,19521.5,27252.8,20333.2,15934.1,0.0,28793.8,
525,0.358,13584.1,19013.5,21352.3,17750.5,15983.4,15491.4,15518.8,19008.1,18059.8,18574.9,13292.2,47170.7,28002.8,13815.2,18077.0,16355.7,30838.6,17357.3,16948.5,0.0,26350.3,
526,0.259,11503.6,14425.1,13522.9,11209.6,12180.5,13443.4,12263.4,10918.0,15537.7,15795.0,9737.7,30549.0,18755.6,9368.7,10456.2,15263.1,27954.4,13072.2,13362.3,0.0,28197.1,
527,0.218,10549.3,13780.2,18141.2,19386.8,17049.6,19018.4,24391.8,16322.6,35484.5,27615.7,14259.0,98463.1,49484.5,7870.3,23349.0,44003.4,65761.6,33102.8,22139.5,0.0,19598.1,
528,0.178,6428.9,9406.4,14995.4,20308.2,11383.1,14518.6,16358.1,13907.1,25584.6,17850.3,15969.2,72104.9,30272.5,7722.2,19539.3,28703.3,30562.6,21148.4,21353.0,0.0,26565.8,
529,1.035,10481.1,14500.9,17855.9,14141.8,17366.7,23576.5,19413.6,11495.2,23570.4,16293.8,14834.1,21945.7,22463.1,10537.1,10433.4,10144.1,15425.5,19397.1,15835.0,0.0,30961.6,
530,0.229,17561.0,17206.6,16842.3,22096.7,16213.7,14383.0,15560.5,19821.6,18327.5,20618.7,21453.1,46642.3,26136.8,20111.5,30244.2,32061.3,25560.9,18764.6,23149.6,0.0,26817.5,
531,0.221,9249.0,10850.3,14101.7,13220.9,11908.8,14314.3,15838.2,6616.5,16289.9,21433.2,7128.7,18238.4,20260.0,5649.9,5674.6,8104.8,26235.1,16556.7,20788.0,0.0,22704.3,
532,0.22,7751.7,9626.2,10757.9,12909.8,15386.5,15823.4,14637.3,13986.3,18921.1,13882.9,8788.7,21430.8,15478.9,7401.0,14472.1,17789.6,18204.6,16180.9,13723.4,0.0,23116.1,
533,0.204,5709.1,5977.9,8349.5,12845.4,7437.8,8417.5,9751.2,6658.3,8486.1,18974.3,8158.4,15497.0,15060.1,7725.9,7871.8,11487.6,19000.1,10103.3,15700.2,0.0,19737.5,
534,0.226,7097.6,12050.9,18651.6,19988.4,12829.1,17015.8,16736.7,11868.4,19066.5,16159.5,9062.9,22857.0,16056.5,6416.0,13228.0,21769.2,15911.5,15912.5,20453.5,0.0,21433.6,
535,0.228,9279.1,11825.7,14075.2,16994.6,15656.2,16744.5,15698.5,16777.2,21238.9,24546.3,10461.3,23694.9,24512.8,12531.1,16488.9,22560.4,42597.2,20016.8,21691.7,0.0,20552.7,
536,0.211,3575.9,8338.6,9732.4,9024.5,9836.8,10011.7,10649.1,5780.2,11804.5,26149.5,23303.1,35008.8,17357.1,10260.1,19601.4,71718.2,63420.5,9802.0,14199.3,0.0,13706.3,
537,0.217,16640.4,25244.2,24761.7,17667.1,26843.6,31033.0,26820.0,20472.2,36433.5,25576.9,15683.3,139325.9,43249.8,11660.0,35360.1,114366.9,120110.4,22265.0,13056.4,0.0,15379.0,
538,0.449,17254.5,24997.3,26610.1,24292.2,25932.4,30165.6,29778.4,21047.9,35108.7,34525.8,33521.5,107496.0,46115.7,20973.2,39544.3,89864.7,67883.0,32543.4,29775.9,0.0,34495.6,
539,0.185,8612.2,10979.1,11553.3,11886.0,10383.2,12214.2,13781.5,12228.9,23063.8,15224.2,16499.7,111515.1,23145.5,10014.8,31772.1,122815.6,43660.0,16218.8,10283.5,0.0,25904.5,
540,0.229,14335.9,18355.6,28779.5,30635.3,22968.8,28883.3,28449.7,17584.1,27036.9,24065.5,20995.4,62849.5,25380.5,12779.8,25402.7,96305.9,83748.8,23111.5,21873.1,0.0,31499.8,
541,0.211,4823.8,5569.9,8369.6,10864.7,6100.5,7050.2,8746.6,6863.7,8862.8,14762.6,8053.0,19082.1,19470.0,7021.6,8412.4,13459.2,20669.2,11198.8,10310.6,0.0,25628.5,
542,0.188,4780.8,3992.4,4050.3,5049.7,4453.3,4972.7,5875.8,5492.7,5926.7,10511.6,11807.5,13684.7,10733.6,6919.2,9669.7,16604.4,10181.7,10012.3,9894.1,0.0,19098.7,
543,0.263,14010.2,17413.8,14181.0,11059.6,16829.8,16868.8,13583.0,15753.6,15804.8,11131.1,9883.3,12981.5,13082.7,13551.9,10862.8,10601.8,11578.2,13032.9,14159.2,0.0,22081.9,
544,0.19,4685.2,4589.9,4046.2,5477.1,3106.8,3451.4,3736.3,4416.7,4919.8,8614.6,7975.2,25888.1,12325.1,5519.1,7600.9,17049.8,19748.9,5761.9,8455.7,0.0,18327.9,
545,0.161,6722.1,7606.4,8048.5,9273.0,6961.6,7599.8,8655.3,7241.6,8422.7,10474.2,6479.0,16038.5,11474.8,8553.1,7120.8,7352.0,10432.8,10350.5,11322.5,0.0,24287.1,
546,0.18,10872.4,14500.8,16626.9,13159.5,18377.2,22189.9,20933.0,14918.8,28796.2,38891.0,9068.1,61404.6,43350.5,8546.3,15062.7,50522.0,127873.6,21062.7,15233.8,0.0,17684.3,
547,0.505,35145.0,39564.2,40899.3,33115.5,45846.8,46141.5,38589.1,31108.1,45150.1,22441.0,28033.7,38074.7,33539.3,30065.0,24630.1,32308.6,58129.0,35747.2,24436.6,0.0,34048.8,
548,0.241,23780.6,27633.2,32829.2,30501.1,29812.0,35578.0,33909.0,27141.2,35249.1,23056.4,19522.4,23533.5,22707.6,23832.2,28658.7,19366.4,18510.9,29008.6,26615.7,0.0,34564.1,
549,0.236,13743.9,16929.0,17519.5,15529.6,15032.5,15333.5,18673.2,17043.0,21063.7,19951.8,17490.6,31989.1,20158.2,14150.1,25157.4,28572.8,20581.5,16256.2,16811.2,0.0,17305.1,
550,0.227,6871.6,11981.9,19349.9,12460.6,13836.4,20026.9,19395.0,10941.8,22048.8,9488.4,10078.8,25698.2,11524.1,7855.4,11942.0,32431.4,7550.3,13356.4,9066.5,0.0,10066.5,
551,0.239,20102.2,24172.1,27310.5,18945.7,26760.7,30179.1,28902.2,23698.8,41474.8,16438.4,18606.9,147798.7,38994.7,14603.7,33894.3,118994.3,37279.6,28143.4,16754.6,0.0,16818.0,
552,0.477,22240.0,31890.0,31724.6,31671.3,25024.2,32749.0,31656.2,15007.2,22440.2,26237.6,17588.6,101444.1,28695.8,13025.4,21604.5,78281.0,45908.7,23100.9,28490.5,0.0,54601.5,
553,0.601,12660.4,23733.5,28273.5,20556.0,24840.8,28453.4,27693.1,14975.9,25440.6,23432.6,20827.7,62399.9,43104.7,11326.8,20393.1,67037.4,53979.3,22397.7,18396.9,0.0,22446.8,
554,0.293,16690.4,29036.1,35239.7,36967.7,30246.7,40923.2,40819.1,24077.7,38443.6,33368.2,23233.5,35073.6,35107.7,17001.5,25831.4,26024.9,28181.2,38464.4,36771.6,0.0,19172.9,
555,0.205,18544.9,23421.6,24957.2,33920.5,24091.5,28564.7,27004.8,15927.8,29436.8,12612.4,11664.5,23890.1,18217.2,11552.0,12047.2,10973.9,7559.4,25275.5,22951.9,0.0,19469.6,
556,0.205,14489.8,14437.7,17016.7,14518.3,18020.9,18182.7,17481.8,13223.2,21696.6,16408.4,8742.4,26708.8,24064.6,7841.3,11036.3,15484.4,32361.2,15338.5,17132.5,0.0,18038.9,
557,0.224,11867.6,12070.8,14694.8,17105.2,12994.4,16329.3,16803.1,11379.8,17523.6,22054.5,10704.2,63793.8,28267.8,9217.9,15065.5,54287.7,55623.7,18250.2,19458.0,0.0,39403.8,
558,0.181,16438.8,20951.3,21761.6,18066.2,24773.6,27021.5,49947.8,16317.4,35657.5,21387.3,5577.5,76317.5,29876.9,9220.5,10167.4,61075.9,40035.2,28675.5,23737.1,0.0,24795.8,
559,0.256,13277.8,17231.2,23015.4,23495.6,18227.5,21670.8,25325.0,15766.9,26403.5,24140.6,12426.6,45765.3,31159.0,9579.4,15798.4,19573.1,35138.6,24494.2,24459.9,0.0,23089.8,
560,0.385,10205.7,10185.6,14487.0,19289.0,9915.4,12330.2,13703.7,11054.3,13579.3,29918.0,22397.9,43381.8,35006.0,13507.4,19896.4,35074.0,45735.3,19311.4,26797.6,0.0,28426.2,
561,0.208,17792.6,22080.5,27834.8,20233.0,28327.7,29984.0,29204.1,20057.3,43019.3,21894.8,23760.2,135148.7,48023.6,12756.2,36237.2,92968.6,92614.3,28123.4,16249.5,0.0,31520.1,
562,0.335,14837.6,18836.5,17874.4,12265.9,21461.9,25760.0,23672.5,13831.8,29169.9,34731.9,26650.5,121927.3,48459.2,9482.3,30006.6,147016.1,118537.0,21282.5,16042.9,0.0,32769.5,
563,0.597,17634.3,21387.0,25170.4,20723.5,22713.6,26299.2,27161.4,18854.4,26290.2,23513.2,25712.9,111012.2,45226.0,17775.0,31302.6,70610.0,63305.0,24247.1,15712.8,0.0,24160.4,
564,0.297,7961.2,15907.2,20134.2,11883.7,17764.0,23728.9,21228.9,13241.8,20366.8,14269.2,8416.3,15685.6,9764.8,7117.3,10748.5,13561.3,17052.3,13202.7,11637.8,0.0,15726.5,
565,0.237,14259.5,23137.2,21565.2,16526.3,27594.2,29176.1,27950.0,14031.3,31705.1,12599.4,25245.6,54994.6,15841.8,11758.1,24519.3,120125.8,25197.0,22290.3,11817.4,0.0,13294.3,
566,0.213,9210.2,10473.2,10701.9,11661.6,13371.3,14297.4,16146.1,16354.8,28854.6,30013.6,38376.0,172931.2,43841.7,13461.2,64761.4,192035.9,99909.0,18690.8,15897.6,0.0,16174.2,
567,0.208,12352.2,14256.4,14372.5,11778.2,15454.4,15706.1,13780.6,15704.6,25492.6,26305.7,14715.8,129708.4,49111.4,11864.5,34323.9,72884.5,74553.8,19801.4,23314.3,0.0,35700.7,
568,0.218,14449.6,23021.0,29157.7,25685.4,24025.0,32551.3,30887.0,28264.7,46595.4,37864.1,26814.1,114887.0,43355.9,22061.8,49322.7,64166.9,35439.0,37338.1,39560.6,0.0,17221.5,
569,0.733,20721.1,25941.9,25584.6,27139.9,26958.7,30710.3,33099.1,24108.4,38588.3,37127.7,25076.1,103426.9,51712.0,15291.5,38236.7,80759.1,57106.7,36259.2,38278.9,0.0,25481.6,
570,0.578,19508.4,21616.2,23774.4,19072.3,22239.8,26883.2,79267.0,26507.7,29269.5,45515.2,23497.1,59366.9,43724.0,19586.2,28917.9,46901.8,78070.3,26221.5,31381.4,0.0,30529.0,
571,0.656,25009.8,38654.7,39791.8,38218.3,39147.9,45324.5,85528.5,24049.1,34242.9,68667.1,16968.1,122958.2,72628.0,10701.2,34131.5,162630.1,143791.6,38494.8,41328.2,0.0,23606.2,
572,0.284,13942.6,20925.2,26969.4,25360.0,26262.2,30808.8,29823.6,24158.4,57616.5,33289.4,18002.1,288959.8,97637.2,13909.8,52189.5,108103.7,123429.8,46066.9,34605.4,0.0,27730.2,
573,0.238,18805.7,27944.1,35136.4,26980.8,33473.5,41226.2,41223.3,20514.1,38045.6,35018.7,18468.1,115295.0,50982.7,15711.6,29025.4,110798.6,138701.4,22902.8,18586.0,0.0,27818.1,
574,0.198,12836.7,13613.3,13704.0,15652.1,17024.9,16519.1,15056.3,16522.1,18313.9,23671.7,13136.0,30246.8,21816.2,13719.6,17144.0,16440.2,31621.3,15162.6,22420.2,0.0,36979.4,
575,0.208,8837.3,8900.7,8834.3,6797.0,9793.6,11243.3,10862.5,11909.2,16664.9,6227.9,14371.3,35554.6,14430.7,9907.2,19418.0,23278.8,10691.8,9836.1,6928.7,0.0,19112.1,
576,0.236,29306.2,31076.1,34628.7,35249.3,29068.9,31701.0,37517.0,32584.1,33784.8,44356.4,25185.6,50780.0,45592.0,29346.1,35050.4,36547.9,41883.9,40284.0,31366.7,0.0,36149.8,
577,0.181,7321.9,10328.0,13430.4,15966.0,11944.7,13650.6,12550.6,11402.7,15458.9,14782.9,10002.8,26040.4,17104.7,9486.5,14475.5,11205.7,16713.2,18330.1,19440.5,0.0,31939.6,
578,0.323,17629.3,22104.0,22537.9,19371.6,19849.4,21334.3,21440.2,19316.7,25082.2,16091.6,18736.2,48128.9,22770.1,13931.3,25719.6,61229.1,23008.6,21161.3,15590.3,0.0,44410.0,
579,0.217,13192.6,15860.3,19679.7,16353.0,13980.3,18141.8,18396.4,11536.1,21432.0,44639.2,9844.1,47911.6,39166.2,6987.3,13638.6,26564.7,80439.6,20822.9,39193.9,0.0,23324.8,
580,0.372,25973.6,34023.0,35375.8,29494.0,36198.9,44546.5,38007.1,26862.4,46583.5,59695.1,11876.5,73984.0,50096.0,16350.5,23470.5,44024.6,107709.1,36204.5,34934.3,0.0,25683.0,
581,0.678,27473.5,31401.2,29484.6,26938.9,27674.2,29685.3,30422.7,28381.0,40325.1,60315.9,28965.5,140951.1,78107.5,26242.6,44976.6,125724.7,200378.4,34217.1,29768.5,0.0,41344.2,
582,0.312,24997.9,39284.9,30097.0,17594.1,41083.1,42920.8,34114.8,21476.9,45994.6,50834.8,22158.2,58666.9,39004.3,13353.8,10965.9,44298.3,116366.3,24621.8,23060.8,0.0,10243.0,
583,9.231,17370.1,45128.2,37992.8,25423.2,22587.3,25517.8,31264.6,17821.9,40413.6,20156.6,10231.9,191740.1,66183.9,12640.9,32901.1,45226.1,57760.4,28579.0,21894.6,0.0,24757.0,
584,39.525,11466.2,26899.3,27612.9,15998.5,19403.3,25229.2,30336.8,17095.9,29047.7,19833.8,16194.2,37820.8,24348.7,10556.2,24034.0,42158.3,43168.0,22332.7,19271.4,0.0,18166.6,
585,0.233,20443.3,20547.6,17750.8,18027.8,17594.6,19716.8,18040.4,21332.3,20342.5,16019.1,25897.6,31366.2,16837.8,23014.9,17981.3,61352.4,33435.5,15895.1,14624.0,0.0,49725.6,
586,0.701,40538.0,46007.1,50679.9,37988.0,64473.6,57290.4,65129.1,27431.7,43122.2,16691.9,10595.9,80360.5,24901.5,15820.9,12445.7,64705.1,66356.2,29763.9,18071.8,0.0,37359.1,
587,1.933,19804.6,27445.7,33370.2,30283.8,29043.6,37352.9,140055.0,32348.2,57220.3,34070.3,29772.0,231756.6,86360.9,22874.9,50720.5,101814.8,138417.3,45433.9,21907.1,0.0,47104.7,
588,0.869,18158.6,24197.8,36131.7,23537.5,28069.9,32463.8,60555.5,20597.9,30186.7,63124.4,34720.0,178798.8,62541.6,14502.5,42930.2,145002.4,195808.5,21315.6,20328.6,0.0,31535.7,
589,3.356,9438.6,10636.6,12776.0,4519.8,11348.4,12056.7,205491.5,8409.9,16717.4,13945.1,3883.3,99359.5,21695.5,7260.0,13946.8,16715.5,40659.8,11362.6,17682.2,0.0,11113.6,
590,9.55,17593.5,23055.9,69662.1,38366.3,52485.8,25188.8,228739.7,32445.7,34269.3,16159.5,11475.8,63961.9,30507.2,143542.8,22044.2,42362.4,31450.5,27440.5,33837.5,0.0,35333.8,
591,4.74,17426.1,33235.8,27638.8,25441.4,33956.3,41558.2,35604.7,25551.9,36662.9,39130.3,27936.1,77496.4,36083.5,41856.2,26974.1,87458.5,173757.1,21423.8,22590.8,0.0,25577.9,
592,0.513,11734.4,16988.2,25848.6,25467.6,25474.0,28635.7,31341.8,16942.4,42882.9,67245.5,20989.8,100887.1,96352.9,15281.8,16525.2,26519.6,197713.7,38557.4,35074.5,0.0,37504.5,
593,0.261,11928.4,18347.2,24326.5,17727.8,23786.7,26562.6,21670.7,14920.2,32871.5,18353.5,12044.2,130139.0,35235.6,9027.2,31523.2,64946.4,34191.3,25481.6,20133.2,0.0,21881.3,
594,0.341,19892.9,26882.3,35500.1,32253.2,31011.5,33267.7,40071.9,18537.6,29962.7,25645.9,13611.7,38094.5,25968.2,13926.9,10342.5,22189.1,26026.2,28459.1,28734.2,0.0,39455.1,
595,4.257,14090.6,18731.1,27470.7,31528.8,29649.3,27061.7,98841.7,19272.3,33081.1,23342.0,11498.2,70406.8,41390.9,12274.4,18490.1,29159.8,49830.0,31870.5,33343.2,0.0,29349.0,
596,1.077,17731.2,25856.5,34940.5,54310.5,17813.7,26671.2,44038.3,28995.9,31368.4,77545.2,17761.2,48395.6,63540.3,16407.7,22641.1,61698.1,115923.7,44850.6,59532.4,0.0,36310.3,
597,0.241,13054.5,13479.6,12793.0,13370.0,14542.4,13670.5,138789.2,10360.4,12935.4,22276.6,16727.4,34016.1,24137.2,7289.7,16222.6,79117.9,62138.5,10906.4,13568.0,0.0,24489.1,
598,0.407,10364.3,13378.5,12404.7,14563.1,11109.6,14573.5,11472.9,14425.7,17141.0,10068.3,19090.2,50822.1,13819.4,16730.1,24768.0,75934.1,16837.8,12539.6,14019.9,0.0,35943.1,
599,0.819,9049.4,9957.1,11971.2,13807.5,11721.8,12103.2,11316.6,13311.7,21423.1,15674.4,12479.5,90542.3,30535.2,10752.3,15546.2,26046.1,32685.6,16171.4,16496.4,0.0,25693.5,
600,0.422,10797.8,11359.3,12350.9,16625.3,12220.0,12495.4,79228.4,13291.8,19592.0,16336.7,7043.7,89287.8,33149.2,6804.7,16686.3,51997.8,30312.8,21604.5,16713.0,0.0,21953.1,
601,0.396,17525.4,19459.7,19663.2,19642.8,23509.9,24323.8,23704.0,25714.0,33231.0,23814.0,25414.3,71469.1,32549.1,19198.3,30368.3,38115.9,33683.9,28686.0,25806.5,0.0,26248.6,
602,0.188,12130.1,14619.1,15252.7,12017.7,15382.0,18475.1,14712.7,14939.6,33432.9,23174.6,10417.7,65246.8,38053.1,10428.3,18237.7,28535.2,71542.1,19563.7,15276.3,0.0,22762.7,
603,0.227,11775.5,13139.5,18380.7,12612.5,17316.0,20565.0,19300.2,16896.6,29781.2,20687.8,19728.1,108939.9,44688.8,19452.6,31229.6,53963.2,55581.0,23638.4,14546.4,0.0,21406.6,
604,0.283,29845.5,36186.6,35591.3,36817.8,44112.2,46861.8,40369.4,37361.8,61789.9,36320.4,23857.3,143496.2,65019.2,26084.9,38525.6,89355.4,98025.4,45502.2,32217.2,0.0,25951.6,
605,0.265,12391.2,17335.8,24737.3,22014.7,15397.9,22655.2,23737.5,13445.8,20947.3,17726.9,17220.4,84023.3,27479.7,12163.9,20626.8,67506.1,47334.8,18553.2,23294.0,0.0,32500.1,
606,0.267,6846.8,9700.1,15195.4,18576.1,13936.8,18392.4,19852.9,12079.5,36764.6,39541.4,10867.3,151521.3,61199.0,6395.8,30394.4,70325.6,120621.3,28366.6,24983.9,0.0,15156.4,
607,0.448,12920.3,14991.2,13504.0,14137.2,15128.9,18037.8,15232.1,13271.5,23130.3,15640.0,29932.5,137893.4,27590.5,10164.2,46489.1,177786.2,43604.3,15692.2,13837.5,0.0,23518.5,
608,0.219,14968.4,16928.5,17307.8,17852.4,22428.1,20772.6,19340.1,21250.6,25471.9,24321.1,17975.3,89720.3,40536.8,16919.6,28463.2,58626.6,57339.5,23450.1,17716.2,0.0,28944.4,
609,0.217,7146.1,5908.9,8590.3,7867.2,6484.0,6139.5,8512.9,8582.2,13380.1,19037.0,15650.7,32177.9,20998.0,8955.6,12258.7,15402.7,24194.1,10562.6,11464.9,0.0,32938.1,
610,0.162,10669.7,7757.2,8107.2,10376.8,10757.6,10938.2,10171.0,8381.0,15640.7,12739.4,7449.3,38896.9,19149.9,6628.7,9021.6,14938.7,19473.1,12725.6,11421.7,0.0,29546.2,
611,0.207,19397.1,19390.0,18329.8,15771.3,20708.8,21988.6,21209.3,20673.0,25365.7,21081.0,10972.5,61524.9,22259.1,14729.5,17857.9,76503.4,42687.0,18802.7,17267.0,0.0,19958.5,
612,1.028,13099.4,18719.5,22582.0,14931.8,16855.0,22702.8,20716.3,11219.0,20675.9,26125.2,9436.3,147600.3,51220.5,5515.0,16032.7,110947.2,165452.2,18867.8,11254.9,0.0,22488.1,Theres just a little bit of fear there - interesting.
613,0.951,37419.2,41682.3,36984.9,32286.3,42529.2,42885.9,41438.2,37319.0,54506.9,24584.5,27271.1,124157.3,49277.5,27001.4,29682.4,105341.2,94013.7,38458.5,32606.7,0.0,30586.5,
614,0.443,26962.2,26184.7,23860.2,23336.7,29470.4,30771.5,27097.7,33586.7,40997.0,30108.6,36469.6,155774.1,50125.8,26980.1,59369.9,166406.5,145412.8,27860.8,18337.8,0.0,54498.1,
615,0.367,8850.8,12327.2,14619.0,12608.1,12192.0,12794.4,13325.5,6868.8,10191.8,12428.7,16685.0,77118.5,9550.6,8420.7,23585.4,87362.5,19886.7,9153.5,12636.7,0.0,19448.3,
616,0.236,13750.1,15679.2,19787.9,22764.9,17672.6,19674.5,24958.4,20568.9,31286.6,20356.3,17199.8,119673.8,46246.3,18819.9,33850.1,53332.8,54932.1,29420.4,21842.5,0.0,41969.2,
617,0.259,9860.3,12027.5,11327.2,13283.8,14883.2,18287.4,14298.9,7965.2,18748.5,18765.7,5984.3,38250.0,18004.2,8443.4,6575.3,31546.9,17507.7,17373.4,17642.2,0.0,25773.2,
618,0.187,8894.2,13530.6,27844.8,33594.9,16657.6,25551.8,26128.4,12614.5,58523.8,18352.7,15425.4,67870.6,23639.4,9082.3,17662.4,77429.0,53736.0,28380.1,23342.1,0.0,22322.5,
619,0.341,20108.8,26971.7,29450.0,29545.1,28936.3,35302.7,37661.2,20066.8,39984.3,23851.9,18278.9,178831.8,72898.6,13223.4,31057.3,103043.5,169820.8,34743.3,19509.4,0.0,22655.7,Moving back to some more jhanic factors.
620,0.794,21264.1,28030.0,29181.0,18974.7,28835.5,32726.5,28681.1,25325.2,40917.9,23612.4,13841.9,78203.8,30285.7,14617.2,23297.1,45522.4,47408.9,29547.8,23144.1,0.0,32393.8,
621,0.399,16071.4,20955.6,22622.8,19227.5,16446.4,19446.8,16425.7,18656.3,19634.4,28161.4,25104.0,90931.2,35016.3,15394.0,39974.4,154504.7,89609.4,19449.4,17900.3,0.0,18975.5,
622,0.433,23388.5,25359.1,26222.0,28087.0,27723.9,29852.7,29801.4,28000.8,39236.7,34033.0,23524.3,153344.9,53897.5,19839.2,37377.3,63379.5,129195.7,35135.6,24066.8,0.0,19990.9,
623,0.331,9269.3,6667.3,9474.1,11946.2,8465.2,8864.4,8980.7,10838.2,13526.8,18151.2,8894.8,72397.2,29492.2,7909.5,14915.5,38241.8,46668.9,14978.6,15416.5,0.0,30161.3,
624,0.229,13402.2,12414.6,10838.8,12571.8,15890.8,12895.9,12738.2,14182.1,14943.5,30523.6,7075.1,112260.4,51613.3,9695.3,17848.5,56095.3,117199.0,18948.7,18320.7,0.0,25427.2,
625,0.21,13345.7,15532.1,20113.4,18266.3,18470.5,20404.4,20424.1,11969.3,18578.8,40614.6,9107.0,77995.3,44816.6,10158.5,12081.5,71781.3,130151.8,18546.6,14338.3,0.0,28098.0,
626,0.236,23178.6,32793.9,39058.0,27320.0,38068.9,45651.7,41605.4,22683.2,48760.4,25757.8,18648.3,110737.5,44283.4,16368.3,15765.3,56723.9,138769.9,33184.3,19089.4,0.0,33296.9,
627,0.227,14370.7,19625.4,20608.6,21480.3,19641.7,26296.5,26271.5,15862.2,30296.4,12595.5,10422.9,61010.1,19187.5,11137.6,14274.5,38699.8,31598.3,21640.6,17732.5,0.0,30699.2,
628,0.185,11388.3,11651.4,14877.4,13450.7,17650.2,21081.9,17803.4,17163.9,32375.2,8407.1,11422.4,91554.5,24174.0,9902.3,23277.9,35035.2,29660.2,20965.0,11015.0,0.0,28368.1,
629,0.33,10733.0,9366.5,8720.7,7673.0,8627.7,8933.5,9041.5,10254.4,13294.6,17555.4,7326.8,68587.5,28945.6,7585.5,15066.7,45928.2,47557.4,11945.1,11778.5,0.0,22015.6,
630,0.227,8331.8,11289.1,17103.1,17438.5,11681.4,15090.1,17497.8,10979.4,19633.2,15199.5,7381.2,30945.0,23350.6,6911.0,13223.9,31813.2,20476.6,18521.5,21580.2,0.0,19523.8,
631,0.226,26615.4,25069.2,22057.1,26003.7,24013.3,22367.0,22850.4,25704.3,21356.9,30002.3,34462.8,39242.2,27568.8,28148.8,28216.4,48968.2,35609.0,25560.1,28892.5,0.0,47212.2,
632,0.191,11094.8,13693.7,16129.4,16527.9,17709.1,22237.8,20896.7,13924.1,32644.8,29791.9,6845.1,100442.1,30339.3,7574.0,23856.0,59404.2,33382.0,26972.5,20475.8,0.0,14181.4,
633,0.202,12638.1,17499.0,20216.1,19264.7,17906.5,20844.2,23310.3,18704.2,27878.7,29020.7,21510.1,79017.8,37759.6,13717.4,26695.5,43247.7,56410.6,25747.1,18459.7,0.0,28404.6,
634,0.215,8168.1,6392.9,7751.4,11023.7,9483.3,8217.0,7692.6,9466.7,8746.2,18165.8,15885.8,49378.9,20556.3,10151.5,25115.0,81652.8,44031.2,11137.9,14157.6,0.0,18863.9,
635,0.808,12406.8,13102.6,15754.9,19221.8,13852.0,15560.3,17323.2,13773.7,21805.4,32576.6,18025.2,107211.7,41877.7,13702.4,27994.5,68908.9,65321.9,21745.1,25935.9,0.0,31443.0,
636,0.283,16353.2,16406.5,21672.8,27941.8,18839.1,23150.4,23996.8,21339.5,25594.1,32035.2,15482.8,27133.5,22072.7,15203.0,21244.1,24040.4,23126.0,25162.6,45365.4,0.0,12751.5,
637,0.207,7274.8,12510.0,17056.6,19133.0,14297.4,17912.8,21179.3,10977.8,21215.6,24807.5,5828.6,44396.0,30623.1,7265.6,11781.1,13170.7,25124.8,24688.7,24989.9,0.0,21605.3,
638,0.343,8872.0,8312.2,9926.9,10681.9,11626.0,12530.1,11254.7,10936.1,13166.6,13616.7,9331.3,12739.6,13645.5,9791.8,12269.4,12407.3,11810.7,12467.8,12634.4,0.0,27426.6,
639,0.205,4328.6,5141.7,8342.6,13656.9,5882.9,6978.6,9247.3,7130.5,12267.8,14303.5,5990.9,15857.2,16267.1,4375.3,10691.3,10830.1,15302.5,14317.7,14918.7,0.0,13850.7,
640,0.229,16497.4,20171.4,19944.8,18767.6,18004.8,19248.3,20838.5,18626.3,23493.5,14267.4,14326.7,20834.9,19772.9,17826.6,17840.2,17513.3,16996.9,18560.9,17660.1,0.0,56486.5,
641,0.207,5406.9,5546.6,6431.9,5515.2,6151.6,7380.8,7483.3,7164.9,9324.6,8356.9,7685.4,11617.2,9739.5,7501.6,10591.0,11292.1,9209.0,8748.0,11194.7,0.0,25556.3,
642,0.478,8813.4,10527.4,10544.6,12317.7,8609.2,9119.5,9188.6,8763.4,9944.9,10998.1,9252.1,8779.5,9935.7,9079.7,9901.7,8770.4,10921.0,10982.3,14262.7,0.0,32133.0,
643,0.309,6336.4,8111.7,12293.2,16388.6,7608.3,7023.2,12305.0,10104.1,10716.5,11074.9,7774.0,21013.2,13879.3,7212.3,11953.7,11542.4,14593.5,11183.6,13803.9,0.0,25546.8,
644,0.349,8127.8,9739.7,13833.2,13438.6,10008.8,12494.8,11890.7,11400.0,13711.6,17222.2,9041.7,20571.8,19142.6,10482.4,14243.9,14648.9,17875.9,16308.6,16640.8,0.0,22121.7,
645,0.343,9005.2,12439.8,16711.8,13768.4,9036.5,11765.9,13762.9,10616.4,12770.4,11310.0,11378.5,14810.8,14615.8,9491.3,13077.3,14285.1,14586.1,13013.8,10473.8,0.0,32218.3,
646,0.299,10788.9,7326.5,7023.2,7972.7,7511.7,7817.0,6902.4,9610.6,10083.6,10068.5,7015.8,12417.9,9250.5,8796.9,9607.7,11611.7,8786.8,10024.1,11443.9,0.0,25519.4,Like aqua - shimmery - bubbly - liquid fingers.
647,0.239,10093.0,9321.2,6389.6,5731.5,8194.7,7112.9,6591.4,10747.4,9894.0,6124.8,8202.2,10687.7,8328.1,10027.9,8533.1,8474.3,7442.7,7145.4,9502.8,0.0,26918.8,
648,0.592,11837.6,11949.8,16146.8,22328.8,13979.7,15817.4,19318.9,9625.1,17733.4,15173.6,8841.3,14773.4,16765.1,9202.8,9040.3,10002.8,16065.5,19533.8,21018.7,0.0,25325.7,
649,0.371,12469.9,12534.9,9566.9,10927.2,12012.5,12519.2,10812.1,12565.4,12149.4,14225.5,15143.6,20101.7,17488.9,12130.6,13713.1,15955.9,18831.6,12140.8,14649.5,0.0,21575.3,
650,0.644,19594.4,22706.3,23721.3,17416.8,20390.3,21836.8,22850.9,19654.2,21981.6,15806.4,17570.7,16971.2,15870.9,17008.0,20284.1,22582.6,14623.6,15742.2,17285.8,0.0,28575.9,
651,0.333,10803.6,13238.7,11175.8,5339.9,9886.0,8731.8,9403.4,9706.3,9139.6,6345.6,11751.9,9172.4,6906.3,10553.7,10388.5,10200.0,8255.4,7215.7,6190.9,0.0,20612.5,
652,0.345,5310.7,9074.2,9441.7,8394.4,7659.4,9022.0,9166.8,8089.9,8751.1,11008.0,8004.4,14476.5,11382.1,6417.7,12020.5,15656.7,13391.0,12424.8,11970.1,0.0,22735.9,
653,0.227,16469.2,19637.8,19392.3,19560.3,21725.2,22418.6,25061.7,23762.8,25851.8,18828.9,19524.6,30057.7,25707.0,17811.3,29433.5,22270.2,20855.9,25286.7,21359.1,0.0,27213.0,
654,0.246,16344.9,18206.9,18047.3,18321.7,20820.2,20148.3,22156.0,23916.8,25845.8,27377.7,19324.1,33810.5,31226.1,14589.4,22300.2,21672.0,30947.8,28284.3,28568.3,0.0,52438.3,
655,0.55,9568.2,12000.4,18637.3,13713.1,12362.0,16003.7,21128.4,11892.5,14144.5,18441.5,8420.6,12095.6,18548.0,6574.8,8128.5,9483.0,15043.9,30980.4,19432.5,0.0,23710.2,
656,0.894,12490.9,10843.3,9427.0,12917.4,14079.9,13987.4,13295.9,11966.2,13410.7,8692.0,13177.5,12639.2,11072.4,13362.1,11777.3,11071.3,11892.5,8816.1,9302.0,0.0,23220.8,
657,1.13,9535.7,13311.1,18086.4,19079.0,169966.0,16044.7,21479.8,9257.8,17787.2,18342.2,11730.2,16117.7,21452.4,7472.2,11390.1,12548.6,22543.8,21212.9,18488.7,0.0,21464.7,
658,0.504,10941.4,10943.3,10212.4,7436.6,17689.9,14929.1,16077.2,19352.5,23172.7,9114.8,18154.7,23064.4,13297.0,13817.7,23050.4,20659.2,17554.2,11665.7,7804.8,0.0,21644.4,
659,0.19,14794.7,16770.6,15905.0,15207.2,16762.2,22544.8,19031.2,19220.3,24702.1,17718.6,16016.2,24978.0,24422.9,15202.7,22345.0,22268.4,24457.9,19724.6,18203.5,0.0,41652.5,
660,0.241,9921.2,17906.5,16562.5,15655.3,14445.1,19237.3,33717.7,12084.0,21145.4,16930.7,9112.6,19487.8,22004.1,8686.7,12374.0,12002.6,24429.2,19566.2,19435.1,0.0,30690.3,
661,0.3,9595.3,15488.0,17402.8,15743.8,15344.8,17887.3,16944.3,9669.4,17157.5,16499.6,11804.0,18087.2,14032.9,6839.6,10845.0,14436.2,14624.4,17137.7,16023.6,0.0,18225.7,
662,0.295,3777.6,3363.0,5306.6,5841.4,3700.7,4977.3,5627.8,4675.3,7091.7,7411.1,6035.8,7687.8,7237.1,5829.9,7350.4,6187.7,6536.4,7285.3,7468.5,0.0,12986.7,
663,0.265,9363.8,11083.1,15103.7,14736.6,14044.1,15875.3,17390.1,9674.4,16016.5,11475.0,8920.6,10957.7,12552.3,7511.4,10010.7,10252.2,10344.7,15715.7,13180.8,0.0,30729.8,
664,0.255,10574.4,10202.1,9964.8,11793.8,9750.0,9317.6,9877.3,12308.8,13297.3,21693.9,8940.5,23236.1,17284.7,8469.6,14819.1,16268.2,19832.8,12717.6,23937.5,0.0,21545.0,
665,0.23,5090.5,7962.5,10462.8,12425.4,8234.1,8438.7,14720.9,7514.5,12020.2,14556.3,3326.7,12108.9,14638.9,3664.9,6949.7,8004.8,12095.0,13911.2,13802.3,0.0,22349.5,
666,0.232,16917.3,21834.3,25301.8,23960.6,20382.7,20768.5,25123.5,20162.8,27619.6,27312.5,15334.6,20880.0,21176.4,18288.5,21476.1,19181.1,22164.9,21529.8,30573.9,0.0,27602.0,
667,0.226,12245.4,12847.3,16134.6,19379.3,15338.0,20118.1,20875.0,12559.6,19918.4,34034.1,10376.2,20894.5,29040.7,10177.3,11433.4,14352.7,34568.4,23539.3,28101.2,0.0,36837.4,
668,0.153,11420.4,10971.6,11699.1,12695.8,12442.6,12513.7,11493.1,7588.3,13288.4,12397.6,10479.5,12657.6,10695.2,11597.5,11948.3,8645.6,9233.7,13068.1,13508.8,0.0,26610.8,Coming sort of a blue-gray mist.
669,1.427,13099.8,14831.9,15443.3,12480.1,12814.5,13281.1,13062.5,10451.3,11233.6,16405.4,9280.8,18221.5,15533.5,10143.7,9771.4,15164.4,33798.1,10407.9,9851.8,0.0,26118.9,
670,0.515,10239.8,14917.6,14790.4,14004.2,13177.3,15596.2,14416.2,10848.9,15645.1,10701.6,18496.4,25963.4,11424.7,10241.2,17419.1,38688.7,24167.9,11766.5,13148.6,0.0,25375.1,
671,0.373,13291.3,10805.9,11508.8,12217.0,11830.9,10577.8,12758.2,21036.1,16867.6,15957.4,15739.4,68906.5,23998.0,12384.9,17708.3,56600.4,35755.9,15082.4,13498.3,0.0,32025.7,
672,0.394,14943.8,18116.9,16399.5,15148.2,22426.2,23413.7,20896.0,21310.1,27361.1,29667.7,24017.4,52517.6,33917.2,17846.7,27544.0,48644.2,88849.3,21702.7,14399.1,0.0,29897.5,
673,0.243,9330.1,13759.2,16343.2,15351.8,13995.1,14726.4,18126.6,13291.9,14913.1,13135.4,10636.1,21994.7,15352.2,8810.2,9797.4,20126.0,34812.6,13885.4,11515.3,0.0,27464.7,
674,0.25,8870.6,9678.7,12378.7,12282.4,15704.5,18221.6,16257.7,13107.6,17361.2,14436.8,8979.0,10451.7,14438.1,9767.1,13040.1,9181.4,9970.4,15782.5,16856.9,0.0,28670.3,
675,0.318,18038.7,20582.8,26470.6,29379.3,19605.5,25111.4,26541.6,17405.3,20121.8,28426.4,17896.8,21233.6,24490.5,12896.3,17119.3,16960.5,22938.6,25421.4,33964.8,0.0,22835.2,
676,0.243,8901.5,10099.1,12889.9,15704.7,13024.7,13622.4,14526.0,12920.5,14582.8,14640.3,9494.3,14175.4,13588.5,8347.0,8880.7,9499.6,13170.6,16524.6,18576.4,0.0,31025.1,
677,0.211,10464.1,10058.8,10147.0,11831.2,8806.1,10461.2,11146.3,10821.8,10839.5,11170.9,11532.0,13674.3,10307.3,13858.8,12904.2,16844.5,12932.8,9418.0,11051.8,0.0,31615.1,
678,0.203,12813.1,16483.2,17883.2,16893.1,16395.0,19607.0,18911.8,13378.1,20190.5,15827.5,6996.1,27116.6,17919.1,8353.1,11690.6,11701.2,17228.1,18021.6,19331.2,0.0,29893.8,
679,0.638,19576.5,19511.0,22022.4,21864.5,19497.8,19895.8,19902.5,19935.4,22482.1,16417.0,17752.1,29651.7,21111.3,15511.4,23312.0,27116.9,19975.0,23001.0,23769.3,0.0,35596.6,
680,0.563,16441.9,21848.6,23543.1,20417.0,17369.5,20995.1,19203.6,13278.7,15063.9,10383.3,7145.9,18328.4,15260.5,9618.2,9895.7,29582.5,13018.7,15461.3,15268.3,0.0,17366.0,
681,0.232,18815.0,22813.3,22375.5,20128.1,22068.2,25852.8,25075.5,19999.6,21554.0,15206.4,8271.3,61255.5,25289.8,12395.2,17081.0,43381.9,25180.3,21785.8,18914.2,0.0,26542.3,
682,0.217,11590.0,13833.3,13364.8,11463.1,12584.3,13295.3,12046.0,11467.9,13429.6,12218.0,6945.3,20749.0,9866.2,8776.8,9562.3,8310.9,19678.0,10604.4,15210.8,0.0,31770.1,
683,0.2,6492.7,8151.6,8172.9,8753.3,6733.7,7659.5,8423.9,6984.6,9719.8,14225.0,9021.2,10334.0,11864.5,8221.4,9013.6,8706.6,16697.5,8768.2,11154.2,0.0,20136.8,
684,0.224,12941.4,14562.3,13824.7,16539.8,15303.2,14662.8,15095.2,14210.3,17898.5,20111.3,15683.4,22192.4,20951.8,13729.2,17585.5,18016.9,23608.9,16119.1,18008.2,0.0,33166.3,
685,0.258,9492.3,13176.1,15561.9,14663.9,13792.6,17375.0,15316.9,10373.2,16117.8,19471.3,7306.2,37410.1,19681.4,8126.1,11658.6,20591.5,20796.2,17964.2,17852.7,0.0,36873.5,
686,0.209,12726.0,16909.1,17450.3,17625.2,18159.5,18501.8,19302.1,13265.3,17054.4,26484.1,14278.1,23395.3,19450.1,12778.9,17283.4,16948.5,21084.5,19611.7,27064.4,0.0,27384.7,
687,0.462,24347.2,25446.1,32095.2,31541.2,29990.1,36930.7,37360.3,26479.3,36840.4,26491.5,14581.4,33323.4,30767.7,20501.2,22117.9,18340.7,25875.9,33305.2,31888.6,0.0,33978.5,
