Time (s),Var Fp1,F7,Fp1,Fp2,F8,F3,Fz,F4,C3,Cz,P8,P7,Pz,P4,T3,P3,O1,O2,C4,T4,A2,ExG 1,notes
1,2.914,6212.4,5816.2,10896.4,11588.5,7461.5,7994.9,10559.5,7370.4,9884.9,12178.1,8601.3,13481.5,11656.5,3397.5,38074.3,11338.2,14672.9,11333.2,12404.8,0.0,272640481.0,
2,2.742,6467.6,10419.4,13477.3,15304.9,12797.5,15803.3,16440.8,8716.9,12346.9,12688.7,13407.8,7253.6,12388.3,6148.6,493319.4,10550.6,10815.5,15765.1,16053.0,0.0,287839126.6,
3,3.455,7834.7,13680.1,12914.3,15074.4,10259.6,14474.1,16359.8,6620.9,15581.5,20162.1,3471.6,13048.9,15844.1,5671.4,127090.4,4324.5,15353.2,16342.4,19893.5,0.0,254197014.7,
4,2.216,17437.1,19512.8,23239.2,27401.9,19824.7,20543.0,21440.6,22972.5,24310.5,22695.5,25783.6,30762.5,25328.9,20507.5,191140.8,25423.0,27223.2,23144.8,27427.0,0.0,212043875.6,
5,2.499,10440.7,12360.3,16935.4,19909.3,12848.5,14821.3,14834.8,10428.7,15438.1,18633.9,8316.2,12027.5,14594.1,7819.6,27471.4,6148.3,11327.5,16498.6,22579.6,0.0,209693732.8,
6,1.979,8353.3,10676.3,16066.9,17442.3,9597.2,11440.2,15165.8,7668.0,10526.8,14342.8,7794.2,10501.5,11028.7,6167.2,62652.4,10004.9,12056.2,14245.6,18860.0,0.0,181601568.9,
7,2.986,11898.3,15012.3,24965.9,24270.3,16496.1,19796.6,25386.8,15334.4,22089.4,27555.2,14149.9,34261.6,29640.7,10779.9,42800.4,24674.6,38860.4,26992.1,26558.5,0.0,181185134.4,
8,2.69,10330.9,10513.4,13267.4,15963.0,11745.4,13721.4,17305.1,213891.2,17907.9,26459.8,16624.3,21133.3,21058.8,11162.7,17290.6,17118.1,22948.5,25569.5,29526.5,0.0,687587617.6,
9,2.833,44363.0,190313.3,250274.2,115754.7,76766.9,100825.4,110539.2,42484.9,62849.7,46669.8,29358.3,54607.9,53662.0,28647.4,56775.6,33137.0,33341.6,72663.3,62597.9,0.0,2209052675.3,
10,3.797,9362.9,8806.1,38105.7,38180.3,8690.2,13952.1,21576.8,1065258.9,13140.6,22111.7,15899.6,27670.5,21514.4,6515.4,1146082.8,18821.9,20414.9,23258.4,23324.2,0.0,3228324996.7,
11,1.171,18091.9,18348.9,23531.7,21381.3,21461.2,20848.6,23091.0,1320921.6,24497.1,20568.5,16713.2,20348.7,19405.0,16112.2,689752.6,23992.3,24261.0,28159.2,19500.1,0.0,24270378650.2,
12,0.581,9858.8,11677.5,13029.9,15026.8,15023.8,14368.6,17333.1,223120.3,16435.6,16156.1,16116.0,15345.4,13579.9,11041.7,60086.8,27983.3,19910.3,18350.5,21700.6,0.0,32363381737.8,
13,1.487,28514.1,49120.5,33163.8,38921.1,32789.0,32740.5,34249.4,25980.2,33505.9,51384.7,16823.1,24369.1,34272.0,10559.2,61402.8,20890.5,28322.4,47359.6,55054.8,0.0,2634653619.9,
14,5.857,54261.3,51899.0,56959.8,57744.4,58298.4,53835.9,55733.5,52311.2,42111.1,49413.8,43896.4,42497.9,47459.8,41779.0,78185.7,40832.8,48068.2,32903.1,55676.0,0.0,730178324.8,
15,16.87,10824.1,12106.0,22409.6,19698.4,9814.9,12359.5,15117.0,25045.1,20979.5,19903.0,12510.2,14632.5,15777.5,6761.8,26875.5,10208.2,15112.6,16407.9,22980.3,0.0,28565.8,
16,17.712,8807.7,9735.2,13839.3,15232.2,12528.3,13391.9,17772.6,15368.1,20471.4,14805.9,12222.6,15715.7,16203.6,13685.3,18545.8,14692.3,13694.0,17964.3,15788.6,0.0,26699.7,
17,16.058,8062.4,7414.7,6583.7,8765.5,8765.3,8714.1,8434.6,12488.5,13620.5,17615.6,8417.7,8011.7,12416.6,9767.4,101243.2,8032.5,11246.3,12330.2,17717.8,0.0,599034.7,
18,15.686,8443.3,8297.8,9986.2,7666.5,10794.9,11323.9,10540.5,12107.3,15411.3,12488.1,9942.6,16061.4,12992.9,7980.5,33422.9,10930.7,11769.7,9740.4,10133.8,0.0,23802194.2,
19,7.247,17659.3,19075.0,23797.7,26696.8,20882.0,21423.1,26135.0,21103.6,26588.0,32997.8,18026.4,24660.8,28456.6,19381.5,71015.4,20539.4,25554.4,29356.7,35871.2,0.0,28406571.3,
20,0.62,24912.5,22696.4,20960.6,21433.9,29711.1,27368.7,33106.2,33679.6,24141.3,22224.5,17667.7,31439.7,28057.6,16816.4,60448.2,38785.5,23508.2,37387.2,22697.9,0.0,5138689113.7,
21,0.314,17079.1,17842.2,20671.9,22605.8,23272.9,23836.5,29040.5,27137.6,25709.6,27627.2,22999.3,24020.0,26965.3,18132.6,44695.1,20862.0,27180.8,36424.2,27753.7,0.0,1130815073.1,
22,0.496,15794.7,15999.4,16595.8,18784.0,20010.9,22493.8,19620.1,16069.0,24412.5,18587.0,20588.7,25481.4,18931.8,14650.9,50622.5,23247.5,20954.1,20509.4,21021.4,0.0,679384408.4,
23,0.316,10520.1,9917.0,13079.9,16473.4,13430.4,14417.1,17687.6,17998.1,18888.0,33425.5,19193.0,24613.6,29635.5,14128.6,20809.0,16420.5,28667.8,23967.1,25814.0,0.0,9874914.6,
24,0.654,15386.1,12954.1,20025.0,24997.3,13959.8,14161.9,16736.6,23222.8,16741.2,34095.2,29573.1,39115.9,27494.0,24804.5,37397.9,45679.6,33950.4,20515.3,29195.4,0.0,12503152.7,
25,0.427,6378.4,10692.4,14580.1,15823.2,9818.7,12902.7,13261.7,7246.3,12621.1,12370.3,9705.8,10347.7,10066.9,6316.0,31918.3,12936.8,10943.0,14717.5,15105.1,0.0,3881403.3,
26,0.279,11203.0,10284.4,10618.5,8956.9,10859.7,13923.8,13196.9,11259.4,14844.2,16100.6,20693.2,21678.3,18719.2,16583.8,29496.2,29083.7,18823.6,12967.8,10731.0,0.0,644969.1,
27,0.499,11678.9,13638.9,19146.5,14036.7,16902.7,18587.2,20054.5,11459.5,20750.0,16843.9,17036.6,27159.7,24540.9,12112.5,22310.6,25153.6,29393.5,12418.2,11849.9,0.0,610646.9,
28,10.226,24866.8,76510.7,57197.0,22579.7,28575.2,33081.0,30182.9,20567.3,33947.9,25850.8,13096.0,49001.6,31994.3,17212.0,30720.8,28308.8,40998.0,24808.7,23246.4,0.0,738974.5,
29,0.564,15076.9,13512.3,14280.3,25635.5,15354.6,14191.6,14010.2,26492.4,16899.3,14809.6,12452.9,14852.1,14887.8,17247.6,20986.9,17181.2,11855.4,18329.2,13641.6,0.0,1192958274.7,
30,8.2,60876.8,185419.6,138789.1,50375.8,82840.6,83891.8,65813.4,62107.0,53788.5,32070.6,32660.3,39072.3,38617.7,44998.8,41646.3,32784.8,35969.3,45384.5,34740.0,0.0,3691431853.1,
31,13.346,24484.0,195131.5,139858.1,22687.5,36354.4,44150.8,33641.9,12677.9,14509.4,10190.1,6057.2,22698.4,11625.2,11616.0,11558.5,28369.6,15143.2,11660.9,6943.1,0.0,15174578.6,
32,0.214,10717.4,10288.3,13326.4,15373.6,13595.1,12414.8,15302.0,15957.1,16258.8,11815.2,14361.7,16539.8,17327.7,12273.6,40923.5,19806.1,20792.3,15835.4,9330.7,0.0,33451338.2,
33,0.304,9985.0,7932.7,6941.1,8161.7,9995.0,10568.2,9435.5,7820.2,13621.8,18531.1,10000.0,13535.7,17180.3,7885.8,19310.2,11207.8,12451.8,12741.8,17520.6,0.0,2986981.9,
34,0.631,15880.5,13644.9,16518.4,16096.0,16902.6,17789.5,16921.5,14240.5,18007.9,15375.1,16839.6,18226.9,14158.3,17315.9,26393.9,17238.9,13141.9,13984.7,18310.4,0.0,470397.1,
35,0.552,11512.6,9272.3,8321.9,7924.0,8817.4,10322.6,10182.7,9680.5,12014.5,8830.8,9286.6,15604.5,14282.1,9495.7,25821.6,18848.0,11587.9,11063.0,9602.7,0.0,577419.6,
36,0.704,8725.5,10308.9,9845.7,7181.3,10256.6,12810.1,10148.7,7424.2,11275.1,8622.4,7400.7,6603.2,6534.2,7742.6,19890.8,10519.6,8916.5,7988.0,7780.4,0.0,697434.1,
37,0.392,14064.3,13239.9,17047.6,12589.0,14753.3,16577.1,15389.1,16747.6,20743.2,17482.0,11015.6,28244.5,20943.9,12760.3,21191.7,18122.9,25658.9,18095.7,13193.2,0.0,658503.0,
38,0.334,9822.4,10628.7,12448.4,15948.9,10921.7,10981.6,12671.6,11462.9,12718.9,13720.2,19124.1,21565.4,17897.6,14076.3,36801.4,18131.0,13461.9,16735.3,21626.4,0.0,673046.2,
39,0.446,8114.7,8174.0,11141.1,10613.5,9596.7,12431.0,12711.6,9093.6,15423.6,16759.4,7305.4,22789.7,17216.6,6776.3,31908.7,11271.9,17167.2,16318.3,14416.7,0.0,690623.4,
40,0.326,5868.4,5324.9,7131.8,6525.6,7778.3,8881.6,6879.9,6279.5,12184.2,11594.0,11822.5,14320.8,12705.6,7635.9,17523.7,22534.4,18916.8,8897.6,9051.5,0.0,634347.0,
41,0.385,8655.7,9231.2,9577.5,8725.7,12874.5,11954.0,10852.2,12934.5,14546.2,11392.4,8114.5,19354.9,14773.4,8599.0,23073.3,15668.2,19491.0,11699.8,11514.5,0.0,719717.7,
42,0.231,8802.5,10565.4,8449.8,9792.7,11742.6,11977.3,11127.3,12917.7,13358.5,7466.5,12265.0,14282.0,9786.0,8721.6,30279.6,30597.1,10310.1,10288.4,8310.0,0.0,4858485.8,
43,0.377,10685.9,12507.9,18235.0,23299.2,13062.9,13640.5,19538.5,12080.3,19823.6,30462.2,11916.0,28771.4,30411.4,9940.7,11863.0,24383.2,38759.7,24881.6,35820.4,0.0,2729428.7,
44,0.292,11280.4,13541.9,13772.6,15738.5,14443.0,16090.6,15333.6,11728.5,19914.0,18974.3,6497.3,18308.0,19733.3,8062.7,19915.4,11872.7,15806.1,18084.5,20366.1,0.0,15851792.2,
45,0.278,18603.3,22625.8,19139.8,15014.6,22797.8,22558.5,20436.0,21962.6,29060.5,13078.8,12773.4,27227.0,16020.3,15416.7,26761.2,26504.7,14313.6,17936.1,11275.1,0.0,2183186.6,
46,0.383,9814.7,12872.5,14582.4,12309.8,15773.6,18580.1,16985.7,14358.3,23290.1,7608.6,14393.0,15369.1,13515.0,11320.6,28519.7,15987.3,8556.5,14808.9,9864.4,0.0,6295129870.2,
47,0.36,8834.3,9316.2,10321.0,8638.7,9168.1,9647.9,8584.6,551601.6,9863.9,5702.3,10989.2,14524.3,5804.2,14196.3,7593.9,9409.6,9815.5,8100.8,10433.5,0.0,115432891.6,
48,1.779,11042.1,13499.4,16417.6,15479.1,13779.3,15409.3,14701.7,23793.9,16463.0,26102.9,12436.4,12767.3,12681.5,10745.1,7380.0,15421.4,18500.4,15001.3,27565.5,0.0,1477457625.4,
49,0.393,9691.4,15349.9,21545.6,17096.7,17429.7,22707.4,20507.4,14897.0,31870.6,15440.3,8232.6,25731.0,23472.4,7948.1,18508.2,13821.6,20833.7,20324.9,13939.9,0.0,16182398.0,
50,0.267,6729.5,8979.7,7940.9,8404.4,8998.1,8954.5,9075.2,9251.7,9668.3,12691.0,7192.2,21026.1,14321.6,6684.4,20750.1,14764.8,19790.6,9060.2,9714.5,0.0,951829.6,
51,0.287,8600.8,8051.1,10158.8,12152.1,9701.5,9635.0,9257.7,9361.0,12073.7,17232.9,7733.3,8827.2,14314.7,9568.6,17247.6,7775.0,11714.9,10486.1,18947.1,0.0,715809.8,
52,0.225,13341.0,13150.6,12649.7,12056.9,14120.8,13227.4,12089.7,17149.6,15396.7,14173.4,21110.4,28519.3,16100.2,16286.4,29708.4,26411.4,19605.2,12847.0,13209.0,0.0,744977.7,
53,0.325,10222.0,9647.0,9777.0,11956.1,12884.6,14609.3,14751.1,15880.3,20753.3,25962.4,16735.4,38853.3,30933.5,13933.7,50728.1,32945.4,31484.8,20404.5,20452.8,0.0,409071.6,
54,14.869,37103.9,142031.9,124972.6,56605.4,61571.1,75470.2,68655.9,27034.1,45889.9,29208.0,11079.3,40166.5,41256.9,18076.1,25335.2,19064.8,34315.0,49910.4,40616.9,0.0,38241461.5,
55,1.801,15705.1,23239.0,9858.6,12564.8,14407.7,13219.4,10934.4,14490.6,15931.6,9790.6,8688.6,18319.7,12813.6,7896.9,14166.6,28241.3,11242.8,12169.4,10457.8,0.0,6727578.3,
56,0.318,23265.0,21551.2,19997.5,24216.3,20577.7,20842.0,21916.9,22781.8,24470.8,18757.9,17353.5,27326.1,24562.6,16954.0,26592.4,17639.6,21600.7,26288.1,21523.5,0.0,1078689.8,
57,0.748,19294.8,76050.6,101104.4,58570.9,35756.0,18281.5,37555.4,64561.9,16455.0,23933.2,14734.8,34562.0,34490.2,11784.9,25860.0,21540.8,27855.1,29110.9,33376.2,0.0,473443.6,
58,0.832,8731.4,12670.2,20610.4,20950.2,11126.8,16251.7,16898.1,617625.7,10841.6,18255.2,17748.6,22780.1,21350.3,10076.4,9055.8,14959.4,22834.5,17017.8,25019.0,0.0,1009854.9,
59,0.51,19064.3,21569.5,27096.2,28469.8,26285.3,30718.2,30947.2,27322.2,34819.2,37523.5,22479.9,38719.8,40531.1,17413.6,27449.1,25271.6,51581.3,38200.5,35343.3,0.0,864340.7,
60,0.24,14393.8,13746.9,20285.4,17522.5,17295.5,18754.9,19696.8,12341.1,19333.0,15122.0,15020.4,17312.2,17934.4,15159.1,13617.8,16138.7,15726.3,19747.3,16374.1,0.0,735454.1,
61,0.227,14256.2,16450.5,18149.0,21078.7,18304.4,20707.6,21442.9,18276.5,25557.9,21115.6,11940.4,20110.3,20126.4,11832.9,17226.4,19445.7,19826.1,23199.9,27417.2,0.0,635243.2,
62,0.322,13854.1,18505.6,19213.8,20618.6,17004.2,22148.6,22135.2,902525.1,24819.4,21002.7,19590.1,18600.7,22348.5,14709.4,86832.2,28078.3,21589.3,24394.4,26376.6,0.0,785715.9,
63,0.438,19637.5,23198.2,25811.6,26470.2,27231.5,29617.7,32480.3,29505.6,40355.9,43213.3,22987.7,40284.1,41930.1,29306.1,55537.6,21420.3,32851.3,38700.4,40365.3,0.0,996093.5,
64,0.237,16098.0,23048.8,22908.3,19170.6,24296.8,29043.4,25800.8,20728.6,35828.9,21582.1,20849.9,29427.7,21182.9,20892.3,25893.5,19567.1,21295.3,24107.3,24690.3,0.0,1197669.4,
65,0.217,5821.0,4899.1,12705.5,12549.6,8464.5,10546.8,12161.8,8120.6,13569.9,15927.5,9753.1,14269.0,15374.2,8854.0,30507.5,10745.9,11576.3,12307.5,19215.8,0.0,998493.9,
66,0.228,13478.0,15108.7,14406.4,12648.8,16453.5,16309.5,14023.0,18954.6,14660.5,18626.0,16537.4,30405.1,18804.6,14360.2,68076.7,41316.8,18958.2,13238.9,13961.9,0.0,1083295.0,
67,0.317,8641.6,8353.4,11156.5,11943.0,8666.6,9125.7,9509.4,6945.6,11088.9,10200.0,9710.1,31015.1,15611.3,6100.6,36569.3,19292.9,15993.6,10652.1,9413.8,0.0,1155132.2,
68,0.307,9758.4,11918.0,12189.0,10238.3,13065.7,15202.7,13745.3,16409.0,20512.5,7336.9,11110.0,32050.0,16617.3,12236.0,33846.7,16585.7,12224.7,13466.4,9416.1,0.0,973648.3,
69,0.631,11725.4,13829.5,11013.3,13413.5,13952.0,13330.0,11721.2,15028.7,17292.2,13562.6,14930.3,23124.8,17175.3,11407.4,27727.4,25008.8,18369.6,13956.0,14331.7,0.0,938361.5,
70,0.324,12138.5,13937.6,15229.9,14925.3,15443.0,20180.5,19221.0,13847.3,20483.2,23398.5,9268.4,32856.0,30482.5,9973.2,25781.4,14765.1,22139.8,21186.8,18657.3,0.0,1073541.5,
71,0.243,15121.1,14754.1,16225.7,19906.4,18971.9,20214.5,22904.6,19717.7,34672.5,30956.8,20000.6,82403.1,40502.4,18036.2,63548.8,53703.1,25091.8,32713.7,31675.5,0.0,1037160.5,
72,0.216,10835.5,14954.9,13898.4,12646.0,17196.5,19337.9,18615.9,10498.5,26884.4,19321.0,18390.7,61640.2,28988.6,9020.7,21618.0,38940.6,26187.2,17676.8,12456.6,0.0,1001356.2,
73,0.355,14354.2,15409.7,18079.9,20078.9,16243.8,18850.8,19828.7,14144.2,19308.9,30029.1,21528.6,44904.7,46010.9,16839.5,25048.2,26774.6,49051.2,23941.5,32124.0,0.0,1211239.8,
74,0.217,9856.5,8689.0,10030.8,7888.0,10453.1,12101.8,9646.8,12900.0,15882.6,13083.8,14862.3,37354.3,20182.7,10376.8,26929.8,33502.0,21789.0,11730.0,9612.4,0.0,1108861.8,
75,0.288,12228.0,14623.2,18139.1,17058.8,18786.8,22360.1,22431.2,24983.0,27929.7,25144.5,19284.1,54678.9,36875.5,14010.2,44457.1,41781.4,35507.1,23094.1,19167.0,0.0,1112626.8,
76,0.325,20354.0,22396.5,28226.1,23359.8,22710.9,28153.7,28670.8,24387.2,25569.5,24065.6,25190.5,30583.0,18408.4,21961.0,42461.5,36181.1,22263.9,20182.7,20979.8,0.0,1028652.8,
77,0.221,9670.2,12695.6,13159.1,11126.1,11679.9,12893.4,11304.5,8760.3,11783.6,21402.0,11164.0,27412.2,21573.8,8670.9,42799.4,18086.1,22305.8,12488.2,19733.9,0.0,901606.4,
78,0.38,17146.7,14941.2,14907.6,15666.5,17795.5,18064.8,14866.5,13658.8,17016.5,39946.4,8188.3,17937.7,29325.9,10512.4,20070.3,16717.2,45930.7,17303.8,32609.7,0.0,1098371.5,
79,0.265,9545.3,7019.8,6738.3,9115.5,8414.5,7165.2,8748.5,11731.7,12705.2,21178.5,13879.8,23848.2,23203.9,10557.8,21694.3,24831.4,27583.3,13312.5,19654.3,0.0,1114656.5,
80,0.295,8956.1,8940.1,10610.5,12911.2,10526.9,11284.1,11570.8,16150.7,16546.7,29424.6,16887.6,32132.4,38271.8,14187.6,27762.7,22829.1,40780.9,19992.2,19506.6,0.0,882175.7,
81,0.248,5800.8,8232.5,8771.3,8811.2,7544.5,8222.0,8371.8,7837.7,9882.8,12327.3,6376.8,25955.1,13320.0,6341.3,25110.7,17718.6,12474.4,8325.3,16718.0,0.0,1002316.9,
82,0.339,16691.4,17099.9,18242.0,18771.3,20246.0,20206.7,21575.6,18259.0,24692.2,27661.6,14410.6,26315.1,25867.1,12392.7,49576.6,41315.9,23397.2,23559.7,24674.0,0.0,950671.1,
83,0.296,15187.8,14043.4,12645.1,11376.4,14545.0,13378.4,13182.6,22235.1,22671.2,16939.5,23191.8,100386.0,38270.3,18616.5,36483.0,51121.3,25270.5,17236.8,13232.4,0.0,881683.3,
84,0.276,10262.9,12319.7,17327.0,20569.5,12535.9,14179.8,16044.8,10238.6,18867.9,43471.5,16659.0,97803.7,62496.5,10923.7,39420.7,37366.0,66121.3,30211.5,42405.6,0.0,945868.9,
85,9.19,12395.1,51284.9,44101.4,15423.8,17074.8,19430.0,17360.7,17118.4,19224.1,21422.4,18368.9,44191.7,36446.0,17538.3,51513.3,24181.8,29626.0,19981.3,17668.8,0.0,897336.8,
86,0.217,15757.8,19901.0,28551.3,29353.8,21671.6,26772.1,28769.1,16980.3,21456.7,54131.1,21729.6,68019.2,79087.7,16126.3,38718.2,54322.7,88009.8,34019.6,43847.1,0.0,1014058.6,
87,0.298,17379.8,16677.6,17130.1,17464.5,19849.9,20644.3,20136.1,27492.9,26190.0,26552.5,23408.0,47456.5,46613.5,25522.5,28067.2,35118.2,39777.3,22311.6,17540.3,0.0,982746.3,
88,0.284,14818.2,13598.5,14516.2,16123.1,15103.0,13411.1,13193.7,14893.3,14793.8,35023.1,22998.6,34547.8,32445.5,16894.9,27837.6,29802.0,46077.5,19928.5,29026.5,0.0,866793.1,
89,0.275,11643.1,9490.5,10857.0,13042.9,12510.3,14142.0,13552.7,11341.4,16210.2,40308.6,21045.9,54077.2,33650.3,14366.6,36550.5,50445.2,50035.7,19390.3,29712.0,0.0,938713.5,
90,0.317,8139.9,11506.9,15816.9,13028.4,16125.9,19123.4,17705.0,14646.0,22718.2,14161.6,22158.0,55744.7,23488.4,13532.9,28855.6,45764.3,24047.0,16428.2,13337.9,0.0,945259.7,
91,0.252,9846.8,11367.7,15288.0,22810.4,15325.1,16519.7,19826.4,25136.0,44445.6,71751.0,26485.5,243985.3,158146.4,14837.6,79619.1,91391.0,123326.1,49876.2,53939.4,0.0,840803.3,
92,0.335,9367.9,13839.2,21503.7,22983.8,17360.6,21872.7,25161.5,15644.3,35797.8,35157.0,21219.6,209071.0,109993.8,13080.3,66306.1,53845.3,109920.0,36039.0,26133.1,0.0,996822.9,
93,0.315,17886.0,20677.2,20569.3,19649.8,19652.6,21964.5,21094.6,21834.1,28231.0,74749.3,23283.2,165372.9,152081.6,19479.5,108134.2,63205.8,141802.1,38257.8,34930.1,0.0,872520.2,
94,0.29,10566.8,15461.8,22547.8,27955.8,16695.5,23112.6,29654.8,13572.4,40256.6,141215.0,11155.9,209397.9,227118.0,7724.9,38290.6,49245.1,228558.6,66512.4,71343.1,0.0,889232.9,
95,0.289,14910.4,19815.2,23354.7,24989.4,22019.7,24218.4,22862.9,18376.8,26401.0,30179.7,13310.5,41986.1,36347.6,11893.8,34059.8,18073.5,35769.7,25790.4,38844.7,0.0,936138.1,
96,0.301,10340.3,12677.0,17588.7,15407.0,13942.5,16447.1,18600.9,14478.0,22573.6,18245.1,10778.5,24906.3,23070.3,13501.9,41002.6,13901.5,22387.5,17669.9,14619.3,0.0,850938.6,
97,0.383,9194.7,17325.1,28235.0,30313.6,19841.4,27207.1,29290.8,14988.2,28874.3,31631.9,7529.4,33715.0,28847.3,6590.8,40644.4,24860.5,29511.2,26293.2,37749.6,0.0,889975.2,
98,0.211,5812.8,6538.0,8625.4,9780.3,7678.4,9026.4,9023.0,10331.2,13070.5,16897.6,13343.4,21343.8,16456.6,10864.1,36745.5,15235.0,11079.8,11958.9,20421.6,0.0,725387.7,
99,0.397,14388.9,13917.4,15329.9,18548.8,17101.7,18858.7,17262.0,19524.6,19392.7,20919.0,18291.3,32739.1,28003.5,18494.7,38993.7,22707.0,23094.7,18749.6,22171.7,0.0,951867.7,
100,0.297,9271.4,12357.8,17797.5,21088.2,13370.3,16774.6,18123.2,17876.8,20675.7,32032.3,22409.6,45744.3,44755.3,13533.7,49675.2,43919.7,50396.1,23875.4,26772.7,0.0,851508.1,
101,0.312,14159.9,14755.1,20935.2,18692.9,18525.8,21598.6,22099.1,16411.0,27943.1,29322.2,11985.6,41823.5,47697.8,11813.6,35120.7,24868.9,41199.4,29281.8,22889.5,0.0,1103014.5,
102,0.176,6724.9,7078.3,8383.7,11866.8,7210.2,8285.5,9483.1,7350.2,12370.9,20685.0,6211.6,17527.9,20713.9,6533.6,59244.7,10735.4,20603.4,12602.6,18305.9,0.0,807339.9,
103,0.33,8409.9,9991.1,19086.3,21114.8,9589.6,13008.8,16721.9,10831.6,14964.1,16363.2,14585.1,19611.2,14897.2,11687.1,38753.2,16221.0,17167.4,17243.6,18644.9,0.0,1001040.9,
104,0.23,6578.3,7505.7,10975.4,13545.4,6655.3,8896.6,10856.8,10556.3,12891.9,20515.8,11638.2,42262.0,30743.2,8235.5,37280.5,21976.7,44449.7,17023.3,18636.2,0.0,966347.5,
105,0.314,15396.4,15354.0,17439.2,19080.5,18104.8,20075.8,18938.7,19821.1,23134.7,26211.8,30854.7,28523.4,23708.4,20777.6,57986.5,55051.7,22515.4,21191.4,25310.4,0.0,840777.5,
106,0.23,8918.7,9937.3,10798.5,9277.6,9378.6,10559.2,10438.6,8799.4,12762.5,8824.6,6356.2,16739.1,8116.5,7221.1,31751.7,11527.5,13560.3,8802.3,10448.2,0.0,1010814.3,
107,0.267,25197.0,29723.0,31833.3,33213.0,31889.4,32862.5,30573.5,36857.4,36182.9,32387.8,29525.3,37146.8,32316.3,33937.9,46152.2,25527.0,27077.6,33227.1,36931.2,0.0,962400.0,
108,0.263,7875.5,9098.3,14749.5,13998.7,12460.5,14154.7,15696.4,12587.4,19122.4,16857.6,15364.5,29921.0,19681.8,9576.6,31503.5,21788.8,20582.3,18119.7,18658.6,0.0,1004889.0,
109,0.246,8558.4,14493.6,21220.4,21679.6,13695.5,17656.7,21147.5,15019.1,26158.0,34937.7,12793.1,58589.3,35150.3,12187.2,41558.5,20479.2,21527.6,27860.3,34727.9,0.0,952784.9,
110,0.28,12717.6,15754.1,21570.6,20894.0,14939.2,19766.0,21679.1,14013.4,24368.9,26838.3,19219.9,84156.8,38555.9,12003.0,23407.7,54844.0,47821.6,25730.0,23642.5,0.0,1049023.6,
111,0.284,14530.6,14539.1,19905.5,22821.0,18122.8,21624.8,22379.9,17551.2,27614.2,27750.4,27146.3,61961.7,33155.4,24047.0,35731.2,52476.7,26711.4,27248.5,29738.5,0.0,1032487.7,
112,0.268,6060.8,5643.5,7194.5,8649.2,6363.1,7967.3,9094.5,5539.6,9622.8,9061.2,6583.8,31318.9,18213.7,7646.4,26781.2,21519.5,19338.2,10100.0,10272.0,0.0,935012.7,
113,0.268,11766.3,10827.8,10665.8,12246.3,12432.6,11247.5,11314.6,15502.3,18054.4,10913.1,11964.9,40578.4,13480.4,12202.0,87180.9,32357.0,25440.3,11802.4,11118.3,0.0,885487.2,
114,0.289,10464.8,13138.4,16822.5,19065.0,14850.6,18634.1,19011.2,24066.5,23042.2,16310.4,36272.3,82655.4,26277.5,17508.8,148945.3,92121.7,33477.6,17546.1,25909.2,0.0,810413.0,
115,0.299,10692.1,10454.9,14188.3,12444.6,15765.3,17012.1,14951.1,22861.5,28085.2,21612.6,28157.8,89970.3,39474.9,18129.9,237035.5,73901.0,39540.3,14950.1,17283.2,0.0,1206283.3,
116,0.296,10873.3,11909.9,14597.3,15054.3,14857.1,16555.9,14888.1,13119.4,17968.5,26656.5,18050.6,75342.2,40145.2,9773.4,119392.5,52400.4,26938.7,18153.3,27293.3,0.0,1098606.7,
117,0.285,9908.0,13518.7,14397.3,15233.1,15495.6,16945.4,16812.3,16284.0,23774.4,19413.3,17390.5,50328.5,27411.3,9468.4,122867.5,45753.2,27086.9,15511.9,17255.4,0.0,1029189.3,
118,0.218,14791.2,16608.8,23067.2,30586.5,17670.6,23855.2,30884.7,15639.7,30917.2,47238.0,15766.4,71711.9,51969.1,13904.5,41679.6,35277.3,64739.0,36505.6,47024.7,0.0,1033113.8,
119,0.347,13228.2,13539.0,16929.4,16104.7,17414.1,20844.3,19574.1,19728.3,35203.4,24524.1,15087.6,60928.5,27493.5,13692.0,53254.8,24382.5,47797.8,18496.8,20709.6,0.0,915659.8,
120,0.273,11426.9,15436.7,18852.8,17074.2,19493.0,23511.5,20654.2,19060.4,30837.2,21219.1,20963.2,31631.2,26175.9,12866.7,88669.6,20858.9,21641.9,19200.4,17483.2,0.0,987036.5,
121,0.282,12995.0,13272.9,9502.8,10815.7,12931.8,10670.3,9178.2,13677.6,9999.1,8505.9,12490.7,9009.5,7600.1,16239.4,26174.9,8691.9,6629.8,7979.8,12732.5,0.0,1028920.4,
122,1.54,7599.7,8031.3,10901.9,11247.2,7995.1,10095.1,11068.2,12084.1,13137.9,15910.2,7410.4,10574.3,12790.8,7664.4,39566.9,7435.4,11588.9,12288.8,15972.5,0.0,990833.5,
123,0.558,9183.4,8297.7,9464.8,8999.9,10241.7,10614.4,10259.4,10228.2,12336.6,7012.1,6929.2,9637.9,8264.5,7507.7,41663.5,9697.2,8811.3,10411.3,8263.8,0.0,949959.3,Background turning purple - closing eyes - strobing dot - bunch of purple around it - pretty strong  negative image of the background - Background static turning more 3D and dot getting stronger
124,0.335,10071.9,10360.8,10619.0,10669.7,11845.2,11256.2,11300.4,181747.5,12119.6,14151.0,11117.9,19392.1,16826.6,7585.8,88890.9,28803.9,19388.9,14906.3,13523.2,0.0,887546.4,
125,0.52,6810.9,6694.3,8582.1,11237.4,6021.5,8049.8,9736.0,6699.2,6879.8,8801.1,4143.9,6759.7,9179.9,3847.8,12179.2,5642.9,8694.8,10822.8,8168.8,0.0,960661.9,
126,0.691,19410.8,17796.6,12543.9,12504.9,19242.0,16531.0,13683.2,154308.0,16068.0,14568.4,14214.8,11570.6,13990.9,19539.3,62700.7,10303.2,13891.3,13080.3,15253.8,0.0,1074683.6,
127,0.612,10390.7,11605.0,12236.3,12968.0,9938.7,11636.4,13290.1,5420.7,10707.8,10128.7,7188.6,10022.5,12250.8,7027.0,59476.4,8192.2,11971.4,13147.3,9720.6,0.0,1031527.1,
128,0.399,13720.0,12637.4,16030.8,16795.9,12798.4,14595.9,15610.7,15532.1,17082.7,18282.9,14922.1,22866.2,22488.1,15761.8,96213.4,18169.3,28615.7,16164.4,15196.6,0.0,1019281.3,
129,686.387,19145.2,1594852.5,6088463.6,88593.6,25598.4,275583.5,28089.9,182198.5,15894.3,16098.5,8210.6,15612.0,17336.3,10252.2,107454.1,8994.4,15572.3,24936.7,11513.3,0.0,1199915.9,
130,12.147,8633.3,10499.3,10470.0,15496.3,9420.2,8090.2,10040.2,17046.7,8466.3,19390.9,12345.1,11604.9,11968.8,12274.5,95655.3,13080.9,11385.7,13406.3,19778.5,0.0,928234.0,
131,2.132,12717.9,12001.2,13769.2,17386.0,12959.2,14872.8,14627.5,10144.6,18158.6,14533.1,10359.5,18191.0,16013.3,14959.3,78232.7,6607.5,14010.6,17915.1,19176.4,0.0,872657.8,
132,0.239,8351.7,10922.5,15612.4,12818.5,9884.2,12896.3,13227.7,11417.9,14049.8,13033.7,13411.5,29520.8,15116.8,9583.9,75910.1,25743.5,16460.5,13886.2,12727.6,0.0,1018787.4,
133,0.348,8416.5,10903.7,17638.1,16745.5,13552.2,16337.2,15788.3,13243.3,19037.5,17764.2,10297.1,23400.0,18309.4,9597.5,96383.7,13080.3,14593.6,17165.9,16728.1,0.0,1126887.0,
134,0.916,11137.3,14328.6,14304.7,11459.1,14568.6,15954.2,14573.8,11256.2,18133.9,11300.4,8391.1,12798.0,16340.7,8175.6,24552.4,10574.1,11915.1,17122.9,11056.1,0.0,1078816.8,
135,0.947,18767.4,18839.3,16568.3,16556.0,20640.8,20038.8,17044.2,16031.0,17616.7,16516.6,18148.0,24271.0,18171.9,17807.9,155569.0,26941.7,15603.8,17663.5,21662.7,0.0,1076847.7,
136,1.536,14821.7,20853.0,30618.4,30617.8,24566.6,32086.1,32080.2,37227.7,32026.4,27178.9,11913.8,58754.0,20864.7,10325.9,51030.9,81053.2,28724.4,28388.5,38191.7,0.0,1237365.2,
137,1.119,14646.1,18200.7,16192.9,16995.6,16057.5,16871.8,16599.5,12962.7,16668.8,20533.6,24027.4,56551.0,20484.7,16150.9,50938.1,98550.0,20267.4,18180.2,22001.9,0.0,1164588.8,
138,0.834,8856.4,13480.7,17381.3,17891.9,12836.4,16874.4,16674.4,10793.3,11696.5,28702.4,15535.1,73228.0,37635.4,8086.2,66780.6,62637.9,43877.4,17605.4,31299.2,0.0,1044168.5,
139,0.328,11365.5,14350.1,15344.2,13581.5,15880.3,17092.4,16072.9,18310.6,19449.8,19103.4,19023.4,20617.8,25452.4,15661.8,118190.3,20045.4,19120.1,18241.1,19466.7,0.0,1169762.0,
140,1.68,7455.1,10557.9,9012.8,10039.3,9776.4,10331.5,9635.5,12178.6,13167.4,15992.8,11449.6,18330.0,17317.5,8680.2,98603.7,19151.4,17005.9,15148.7,15582.0,0.0,1092858.3,
141,0.739,20008.4,25249.8,24635.8,23817.2,25085.9,26043.0,25653.1,73921.9,27481.2,22993.9,16518.2,32287.2,23111.2,14897.3,31179.4,24840.0,27351.3,22557.1,20704.0,0.0,1082275.0,
142,0.315,7443.9,9085.7,13926.8,15080.8,9234.3,11937.9,14371.6,58716.0,13427.9,12042.4,5470.2,17132.9,15437.8,4688.2,75877.6,7559.6,14774.7,15823.8,19011.5,0.0,1231199.3,
143,0.447,9795.5,10608.3,13660.1,15252.9,9376.3,10326.8,10632.9,62062.5,9800.2,8682.9,9265.8,12436.5,10507.6,7278.8,62112.2,10063.3,8751.3,10733.8,13776.0,0.0,1078258.9,
144,0.389,16189.8,17461.1,13271.4,12337.9,19629.9,17821.0,14036.4,15071.3,13712.0,8671.0,11409.8,17623.5,12572.4,12465.6,56952.0,12873.5,16503.3,11579.1,12086.4,0.0,1225766.7,
145,0.332,22147.7,22033.7,22083.4,22031.3,26879.6,28113.0,25947.6,23338.3,29413.3,19446.0,16143.4,23356.2,23325.3,20660.3,60175.0,15733.5,16188.7,25500.1,22317.2,0.0,1045417.2,
146,0.613,12436.9,16012.0,13342.5,14424.1,11786.1,12598.0,12854.9,14839.5,9600.4,11613.9,12026.3,11162.8,13242.4,9144.2,52616.6,13707.9,12679.9,11367.0,11672.3,0.0,1246010.0,
147,0.679,10079.9,12000.8,12080.5,11376.6,10787.0,11412.0,10960.7,9629.1,11824.7,10903.6,8194.2,8923.2,9884.5,9700.2,14923.2,9821.6,11082.7,10044.7,11187.2,0.0,1108054.0,
148,0.533,12272.8,15117.9,15637.3,12894.0,15136.9,15957.7,17481.5,56018.9,19950.7,10378.5,11349.8,19431.5,12662.1,13173.7,35173.8,18963.6,8409.0,14403.1,12806.1,0.0,1448274.8,
149,0.437,12473.1,10904.7,12106.1,20264.1,12014.1,12535.7,15420.4,14535.6,14217.5,19424.5,14513.3,13265.9,19363.8,14988.8,26417.2,10257.1,13890.0,18193.9,23174.9,0.0,1288702.2,
150,0.315,9471.9,10496.9,15240.9,14445.5,14702.2,15611.1,15579.8,15283.2,17836.0,12525.8,14287.0,19520.9,15940.6,13180.8,16238.3,12378.2,14218.5,15582.5,12545.6,0.0,1134026.3,
151,0.481,10091.8,15088.2,18049.4,13980.5,15339.7,18885.7,17726.4,13071.3,21056.6,9615.9,8513.7,31493.5,19185.7,9312.7,31910.2,14912.1,16781.3,15062.0,13173.4,0.0,1213880.7,
152,0.408,15065.4,15327.6,15164.3,15329.2,15171.9,14007.4,14504.8,55920.9,15786.8,18128.8,18718.0,20803.8,19069.1,15752.2,19698.8,19765.9,19840.2,15953.5,17954.5,0.0,1242627.7,
153,0.391,7982.6,9078.6,9497.8,10655.2,8453.1,7530.0,7916.2,13002.8,4767.6,12369.2,5371.5,8375.9,9389.4,4053.9,8664.6,7083.9,9302.4,8821.7,15381.2,0.0,1155957.3,
154,0.572,8237.9,10248.8,10545.2,9384.2,9595.1,10782.9,11109.6,8549.2,12275.0,12218.4,8981.2,23230.4,23573.5,7910.2,14674.2,11683.4,22627.2,11446.2,8779.9,0.0,1205757.0,
155,0.858,8390.6,10951.1,14164.5,13763.0,10506.7,12002.0,13381.0,11370.3,10412.2,13623.3,13807.1,10036.4,11664.9,10988.7,15800.9,11481.5,12420.2,12901.3,14620.4,0.0,1276328.2,
156,0.909,10347.8,11466.4,11686.7,11093.4,13852.5,16346.8,17371.9,17017.1,20192.4,19061.3,15154.5,15470.9,23075.5,12625.8,81032.3,16757.7,18217.5,21271.0,17734.9,0.0,1542937.2,
157,0.386,9916.6,12245.8,11593.3,13044.9,10723.9,12485.5,13135.7,30961.6,10706.9,8552.9,11023.9,9026.7,8432.5,9997.7,12789.9,14245.4,8216.9,12955.4,11520.2,0.0,1285966.1,
158,0.431,15143.0,15678.0,17779.7,12684.8,19184.5,21981.9,19235.3,14800.1,25476.6,13612.6,8894.2,16540.5,19351.9,10070.5,12742.9,12914.2,11728.4,19698.0,15978.0,0.0,1395141.7,
159,0.93,22444.9,24497.4,29598.4,32167.7,23321.8,27066.1,30402.7,23882.6,30582.2,33582.8,26200.4,41061.7,35571.4,18854.4,43009.1,47794.4,49950.7,32196.7,31166.1,0.0,1390410.5,
160,0.449,19459.6,18428.0,20214.6,22712.7,20579.6,20764.6,17635.8,40129.8,18827.4,22447.3,13343.9,17286.3,20382.1,12273.8,39213.2,17460.0,23624.8,17498.6,26660.8,0.0,1383979.3,
161,0.374,15907.7,13859.1,11289.5,9705.8,17726.4,16616.7,13469.5,22498.6,21844.2,14615.3,22413.8,96038.0,35392.2,14588.2,50400.3,94983.7,71657.6,15749.6,8521.4,0.0,1335472.7,
162,0.313,6862.6,9655.1,12903.7,13647.5,8663.1,12001.6,14614.5,10670.6,15039.8,34481.1,18966.1,63048.2,46596.0,13262.1,22300.5,40500.6,72916.2,21371.3,23624.0,0.0,1387446.5,
163,0.323,7402.9,6953.5,12117.6,11641.0,8695.5,9186.4,10722.7,13289.7,13602.8,11644.6,19776.1,49888.2,14427.3,11574.5,43405.7,53820.0,20111.6,10697.9,11558.8,0.0,1482979.0,
164,0.366,8360.7,10742.1,13559.0,13732.9,11669.6,14146.6,13274.4,10351.3,21788.6,13645.8,7876.1,121556.5,52214.8,6077.6,31196.3,40676.2,73086.2,21618.4,16227.0,0.0,1546454.7,
165,0.43,7818.1,10040.5,14209.5,16722.4,13836.6,16315.4,18449.8,12781.4,30876.3,32691.1,6104.1,123957.9,68623.6,4803.6,15975.1,37724.5,90341.5,24602.2,17234.2,0.0,1269163.8,
166,0.38,13505.0,15693.4,12486.9,12967.2,17158.2,18218.2,16808.6,11769.8,18487.2,16913.0,7870.9,23143.1,23587.6,9457.0,13316.7,9819.9,20304.1,18511.5,15239.3,0.0,1382406.3,
167,0.383,5749.9,9229.6,13139.6,12236.6,8016.1,11714.4,12164.8,6893.7,10249.6,13226.8,9078.0,11498.5,11983.8,6814.5,14427.4,12605.9,12110.2,12754.8,18574.4,0.0,1366520.3,
168,0.495,11080.0,10854.9,10980.4,12699.3,12791.4,11698.5,13056.1,18540.3,11267.0,14519.7,15167.8,25462.9,18749.3,14459.9,18611.3,15078.1,14106.4,13968.4,16174.8,0.0,1477384.7,
169,0.332,10734.5,11509.5,12026.3,12514.4,11555.5,12202.4,13558.6,12337.0,16315.8,14976.3,7283.5,21709.2,20551.0,9312.6,28283.3,7226.1,17174.3,16083.0,15829.4,0.0,1270646.1,
170,0.677,6547.7,8119.6,8873.9,8981.0,9518.0,9430.7,9689.0,11798.6,11729.0,9177.8,8889.8,10823.3,11053.5,8521.9,14567.1,10333.8,11741.6,10528.1,10112.0,0.0,1431937.7,
171,0.283,23184.6,20136.1,19829.4,21195.3,25106.3,23991.0,21952.9,28907.9,27704.5,26174.6,22280.8,22674.4,27651.0,28616.4,27452.0,19986.5,27112.1,25802.9,28081.6,0.0,1271415.2,
172,1.128,9538.6,12398.0,12840.5,14929.8,12687.3,14359.9,14579.4,12183.0,14340.9,23091.7,8954.0,18317.7,18326.7,9557.3,16499.9,11750.8,21662.8,14642.0,22252.4,0.0,1251182.8,
173,0.477,9744.8,10737.9,13828.1,14328.5,13122.4,13477.3,15013.3,18426.1,18823.2,21500.9,13010.7,32122.9,30884.2,13903.3,13992.4,15559.0,26900.2,21460.7,16821.6,0.0,1097299.2,
174,0.928,7175.7,9527.5,15191.7,18261.0,9825.1,12295.5,15343.2,8015.2,12764.5,18397.0,7216.2,31175.0,34341.4,6913.9,19524.0,14801.2,21628.6,19300.1,19289.8,0.0,1223212.1,
175,0.313,10495.5,13349.3,15422.6,18332.4,14169.5,16701.5,16969.6,12629.1,15610.7,15127.5,10526.3,39338.2,24237.1,10596.1,15139.0,14676.1,18058.2,17517.7,19549.4,0.0,1169826.7,
176,0.419,14187.6,13802.6,14330.8,16561.2,16514.3,17385.2,16759.5,17036.5,19386.6,28534.1,14484.2,58275.2,41181.7,14110.0,22865.9,23843.2,42402.2,21221.8,19552.2,0.0,1264778.5,
177,1.011,9901.1,12686.8,13508.9,15626.3,13230.6,14667.3,17432.2,16078.8,26032.0,26687.3,11246.9,70998.5,44077.5,11374.5,19544.5,17872.5,47317.9,23779.8,24705.7,0.0,1153724.1,
178,0.447,20612.5,22534.9,14995.2,12758.9,19948.5,18426.9,14810.3,19351.8,14914.6,16245.9,15099.7,21549.1,19339.6,16957.4,17257.0,14970.5,20904.4,14025.3,15441.6,0.0,1213559.5,Flows with background static and sort of a grayish bluish pink.
179,0.541,24757.5,29923.8,37361.6,32678.2,25150.1,26968.6,31184.7,31084.5,31205.2,33245.4,38466.3,76059.9,50827.2,25631.7,47804.6,85410.2,58955.7,32168.4,30472.1,0.0,1623606.7,
180,0.535,12880.1,11865.3,14816.1,16037.6,13215.9,17504.3,16174.0,25113.3,26543.6,13168.3,26655.6,101117.7,27540.2,17712.0,49857.6,94194.8,30070.6,19883.2,14660.4,0.0,1570429.2,
181,0.846,12282.6,15787.5,19399.4,21906.0,19149.7,22212.9,25699.2,28232.0,53119.4,54853.3,14775.7,383576.6,161172.9,11043.2,75800.4,116853.9,207017.6,46514.2,33197.6,0.0,1470326.7,
182,0.605,9349.3,10918.4,13693.2,14291.6,11894.4,16092.6,17196.7,78349.9,40888.1,19715.5,11996.6,210434.0,81188.4,8306.9,43641.3,55373.4,56671.6,32871.6,17778.8,0.0,1574226.1,
183,0.424,16545.9,19588.1,22533.9,23146.2,25667.1,28505.6,28148.8,27279.3,43032.4,38984.2,22132.5,135174.4,74001.2,21225.9,49839.3,73070.4,92024.4,33705.0,25951.1,0.0,1534137.1,
184,0.493,50670.5,48505.5,48210.2,47951.4,54962.5,52079.7,50190.8,74220.1,72309.2,48400.0,60619.5,164536.9,84303.2,55238.3,119929.5,99375.8,81877.8,56483.0,44158.5,0.0,1706223.5,
185,0.268,14190.4,18792.9,23653.2,22379.9,18718.2,21425.6,24923.9,15647.2,25549.0,30859.9,9519.6,59985.5,41128.1,9850.7,24491.3,24940.5,29006.1,30767.6,31224.6,0.0,1399246.2,
186,0.421,18530.2,25118.5,39761.3,43444.1,27149.6,40545.1,45809.5,19610.2,42229.0,43731.6,7270.9,55131.9,47013.7,11447.2,20658.2,18699.8,44364.2,46469.6,43386.1,0.0,1526900.0,
187,0.347,11188.0,11138.0,12900.5,18076.1,10298.0,13929.8,15107.7,11615.7,13783.8,24041.1,18917.2,39058.6,21011.9,11110.7,23190.0,51171.5,22548.0,16192.7,22649.7,0.0,1372525.4,
188,0.4,9193.7,13191.0,22380.6,22590.4,17142.2,21164.4,22253.8,12606.7,25718.3,42934.5,11281.8,59675.1,50492.6,9573.5,14442.7,24505.8,69304.3,30722.7,34288.4,0.0,1458858.6,
189,0.363,20991.1,23921.5,31116.1,24509.3,29208.0,37256.4,32711.8,24630.9,38914.4,28190.1,22379.4,145450.6,52868.5,13754.4,42497.4,143906.6,104905.1,26489.4,22629.8,0.0,1474877.6,
190,0.432,20095.6,18730.5,22329.1,24677.4,24412.3,26264.6,28570.2,34707.3,47474.9,31479.3,28759.2,149048.9,59032.9,21813.5,77227.1,84382.3,40362.9,37786.4,33424.4,0.0,1305880.0,
191,0.367,16127.4,15559.9,14421.3,16250.7,14598.3,14609.2,16005.5,17015.5,16411.1,24902.7,28694.6,92045.9,29460.8,21157.2,44760.4,82951.8,50586.1,14901.6,20363.3,0.0,1273939.0,
192,0.436,12545.8,15155.2,14488.7,14735.2,16739.8,20210.3,19975.3,29796.1,25970.5,12188.7,35677.3,138421.4,19943.1,19545.2,115425.5,146948.3,13893.1,16047.7,15309.3,0.0,1196994.4,
193,0.341,9241.9,11255.7,10865.4,11247.5,14487.5,18640.5,16733.0,22360.5,34205.9,5026.4,38289.7,161331.0,29906.0,11844.3,83482.7,171966.0,37725.1,21690.4,9031.2,0.0,1001817.7,
194,0.377,12163.0,13018.6,12685.3,14949.2,20932.2,22463.3,19499.4,32761.3,44437.1,16410.8,16440.0,111655.4,43669.3,16378.1,54477.1,45483.7,39733.8,24208.5,16593.7,0.0,1034631.7,
195,0.31,25802.9,35093.2,31058.7,25313.0,37875.2,41943.9,31964.1,26068.7,40829.0,18208.0,9454.3,41158.9,28991.7,14686.4,29133.3,14338.2,20014.5,28922.4,20579.1,0.0,1138078.7,
196,0.476,17495.4,23039.3,22373.5,20922.3,21307.7,24942.3,25967.6,17518.1,28181.4,21161.5,10159.7,54046.0,35910.4,11188.2,29069.0,34333.0,35272.2,27540.9,27166.5,0.0,1092550.0,
197,0.333,21542.6,30377.4,32513.7,30443.8,33058.7,40415.8,35467.9,21456.8,46086.4,21367.4,8194.4,78038.6,36110.7,11840.7,22331.6,49378.6,23167.2,37031.7,30048.4,0.0,1251700.2,
198,0.617,23907.8,22071.6,18029.6,16277.7,23527.9,21893.8,18191.4,22346.9,24817.0,18921.2,21060.8,52925.2,26791.1,20842.5,37259.0,37257.2,18467.8,21896.3,18844.3,0.0,1283265.7,
199,0.357,18823.6,22748.4,26886.0,27133.5,22988.0,29021.0,29263.5,20727.2,33759.4,43462.5,22506.4,72769.4,54587.9,18457.4,36237.5,38787.7,62514.0,36826.6,31379.0,0.0,1517271.0,
200,0.359,23304.5,30701.9,35482.0,32060.3,35043.6,42064.0,36198.7,21241.1,34413.4,37324.4,18771.8,94473.8,47291.7,15128.3,23563.6,103778.4,156739.3,24978.0,21835.7,0.0,1539590.5,
201,0.35,15476.3,19849.4,13602.8,9353.5,19339.2,20000.0,18104.8,20963.1,29366.3,22826.6,21099.2,194316.4,60494.1,12188.5,55264.9,102391.1,85546.3,15687.1,13065.3,0.0,1651980.6,
202,0.401,8104.3,9448.0,14435.8,14072.1,10466.5,14857.8,14862.9,8519.0,14627.7,8272.8,19485.6,19994.1,11948.6,8589.5,33754.3,55998.0,16460.1,12555.3,8231.2,0.0,1501750.6,
203,0.377,9238.8,11685.4,14078.4,17976.9,9979.7,13204.0,13241.7,9755.9,10719.2,19516.6,11834.7,30596.9,23405.2,13034.1,45944.0,24836.2,24307.4,17046.6,18163.3,0.0,1466750.9,
204,0.452,15193.2,18127.6,17783.9,14148.7,18005.4,23043.4,19132.1,19223.6,25637.2,20680.1,15799.4,56799.0,29571.0,15050.5,23422.9,43911.1,25768.8,20189.5,20343.5,0.0,1488975.3,
205,0.302,13079.9,15446.7,17840.9,15164.0,13533.1,13084.3,13036.3,18564.7,15718.0,17073.7,14651.3,25167.4,16986.4,13982.3,23095.0,22951.3,20957.1,12473.8,18537.6,0.0,1464626.5,
206,2.161,8956.6,10885.4,16139.4,20204.9,10282.9,12890.3,17715.3,8915.6,14390.9,21013.0,10846.6,25651.5,21538.0,7175.3,13855.1,32914.9,17100.4,20628.3,25671.2,0.0,1518799.9,
207,0.523,11856.0,16411.3,14963.1,12605.7,12112.2,13808.8,13241.7,11675.7,14050.7,16070.2,11990.4,30716.7,22708.8,9530.5,36795.4,16699.0,20845.0,18338.0,17484.5,0.0,1558474.2,Flows starting to come towards me
208,0.771,3597.8,4987.1,7452.3,7487.6,3898.8,4615.4,6124.3,3092.8,5784.2,8821.3,5776.7,13958.2,10284.2,4550.1,6577.4,8214.7,14061.8,7221.8,7597.0,0.0,1389934.4,
209,0.557,6787.7,6487.4,6186.5,7413.4,6778.0,7382.4,7948.7,8903.4,9768.7,10509.0,7129.5,24444.3,14478.4,6155.6,7520.2,9274.3,16769.5,10572.7,10240.7,0.0,1393604.2,
210,0.501,7775.0,10189.3,10192.9,8016.4,10002.3,12252.2,13590.7,15104.7,18328.3,8517.3,11578.7,66125.9,23980.2,8060.6,25829.5,43545.5,15226.1,13921.7,8473.5,0.0,1078917.2,
211,0.62,20571.9,21521.6,26481.5,28004.7,22222.6,26202.2,28260.7,21484.6,26828.7,27596.1,19211.0,88872.9,34603.1,20615.0,38348.4,48079.3,34898.4,26370.9,32701.1,0.0,1146980.0,
212,0.425,9164.6,14629.2,13776.2,11587.6,12165.3,13119.9,12486.8,14176.1,16776.0,14519.0,12761.2,41357.6,21189.2,10662.2,33943.8,28636.0,18245.2,13940.7,14271.0,0.0,1171880.7,
213,0.445,14158.6,12315.7,7904.4,9863.1,12047.2,11101.5,10295.5,13337.6,12519.0,18119.2,8580.3,25518.3,20163.6,10725.6,15284.3,24015.5,24922.4,10345.7,16138.9,0.0,1099372.0,
214,0.497,9338.5,9229.3,13274.8,16289.2,11855.3,12801.7,15582.2,16830.7,23785.1,16767.4,10498.5,49204.4,26817.9,11460.3,26277.3,20610.1,20608.6,20835.0,18461.1,0.0,997051.0,
215,0.475,15124.0,12539.1,14839.2,17341.1,15676.3,14094.3,13704.6,19441.6,18136.2,12210.1,13660.3,16232.3,13673.0,16235.1,29494.0,12620.6,14370.2,13399.2,14466.0,0.0,1210942.8,
216,0.632,15007.6,17885.3,23002.8,23396.0,19500.3,24502.1,25692.8,17186.8,29398.0,19195.0,8794.7,80302.3,41259.1,10985.4,27831.9,27727.8,41456.7,26270.6,19954.5,0.0,1345465.4,
217,0.628,19456.8,22771.3,22923.3,21771.9,26308.6,27789.8,27209.6,28673.9,33936.7,18805.0,23185.7,83771.9,37384.8,21147.0,49600.4,35770.9,25726.9,29838.2,20864.4,0.0,1280261.2,
218,0.913,19715.4,20376.5,20907.5,21230.9,20734.8,22135.8,20320.9,20938.4,25044.9,46400.7,22841.5,48208.9,46855.5,22245.8,32525.0,26021.6,74116.5,24765.2,28327.8,0.0,1294608.2,
219,0.467,13729.3,18233.9,13666.7,10267.0,16405.5,19216.2,16212.5,12340.5,20830.1,9102.1,12045.2,20370.2,10379.2,12575.6,20186.0,11038.8,16214.9,9421.2,9330.3,0.0,1367025.2,
220,0.693,14638.4,21832.1,24875.7,24124.5,23190.7,26859.4,24566.2,16484.2,32046.0,42882.0,17257.5,74013.8,49771.4,12620.5,24863.5,49601.1,80520.1,28992.0,37091.3,0.0,1468090.0,
221,0.664,7660.0,10204.2,13801.8,13542.7,10124.7,11994.4,13651.5,11510.3,16900.5,9232.7,13368.1,57927.4,18339.2,11942.3,32856.1,33480.9,44279.2,12152.3,8726.8,0.0,1434545.5,
222,0.52,8517.4,10301.4,13289.7,13849.6,12126.7,15124.5,13823.7,13426.7,19468.0,20823.2,8435.8,46653.3,33296.4,11010.9,16833.0,16168.6,29058.0,18964.3,14600.3,0.0,1311591.3,
223,0.493,17377.3,21694.9,33486.4,40301.1,26834.7,36121.0,38784.6,19318.0,34717.0,53610.5,21434.3,50612.5,53822.6,15839.6,28343.9,35659.7,56192.5,46263.6,59006.6,0.0,1408682.6,
224,0.503,10524.0,8996.2,9933.2,11405.9,9589.4,10608.9,10426.7,8349.3,10801.0,14220.8,12501.8,20746.7,14327.2,10805.4,18426.7,15299.7,24271.2,9528.8,10265.5,0.0,1337740.5,
225,1.442,42061.8,48907.3,49309.1,49405.0,48099.7,46756.5,44819.7,50986.2,49554.6,47609.7,45326.9,64594.8,46557.7,50773.4,58464.8,64356.6,48384.3,49295.6,60264.7,0.0,1470031.6,
226,0.45,14480.1,18875.6,25539.8,20564.2,17625.7,23213.0,24541.5,12125.2,23105.8,19387.6,11482.7,31098.0,25329.6,9055.1,11992.2,18488.6,27669.5,20579.7,21501.2,0.0,1364220.6,
227,0.586,6410.3,8432.1,12856.2,12270.1,9943.8,12045.5,12718.8,7395.3,14926.5,16333.5,6141.4,19158.3,12650.3,5833.2,11516.6,12930.8,19519.1,11263.5,16365.1,0.0,1314736.9,
228,1.172,7812.1,8132.5,10867.8,10243.1,10250.4,12453.1,11927.0,8943.0,12622.7,12559.1,7114.3,10054.5,11603.7,6855.8,10002.6,8756.4,11758.2,12429.2,14110.8,0.0,1325410.8,
229,0.689,6750.4,7989.8,9121.5,7292.7,7853.3,8130.5,8177.6,10311.1,10896.9,12272.4,13042.7,61090.1,22651.7,12745.2,22679.2,28574.4,23257.6,10526.4,11346.8,0.0,1162283.5,
230,0.448,7093.2,11681.7,16679.0,16133.4,11436.2,16995.5,17218.1,8565.5,22180.8,20870.6,10698.2,61446.6,31250.1,8414.0,15666.8,29190.9,40484.6,20855.2,21092.7,0.0,1101239.1,
231,0.53,19686.5,15717.8,26498.8,35406.0,21113.8,26542.6,29926.3,29990.1,38384.8,51220.6,34286.9,117681.1,72034.9,30885.6,43498.0,87825.4,128378.6,42618.5,49900.8,0.0,950097.2,
232,0.502,11460.2,17900.8,18273.5,14455.0,17482.6,21243.0,19104.5,14144.2,17400.4,30276.0,23777.6,107867.9,45159.1,10734.8,53218.6,91594.3,74449.8,15626.8,17001.1,0.0,1024873.9,
233,0.749,54461.7,61785.7,61349.8,53278.5,66694.9,71405.2,65056.1,48980.4,63482.4,27662.0,40128.3,150767.0,48925.0,39962.2,50593.9,169764.2,133256.4,48439.8,41745.3,0.0,1173844.1,
234,0.447,34464.5,42487.7,37407.9,34757.3,41743.2,44283.7,43085.5,30329.3,52808.5,34250.7,17118.8,177175.4,76810.9,21650.9,57607.4,59363.8,91651.5,44788.9,41236.2,0.0,998310.0,
235,0.666,14442.0,13156.7,11586.3,11610.6,16169.9,16270.2,13617.2,18436.8,25722.0,16480.0,19848.1,68186.8,29205.7,14209.8,35714.2,32911.9,21059.1,15237.5,16045.6,0.0,1078381.0,
236,0.517,6467.9,6443.0,7975.7,6899.9,9068.3,8468.9,8853.6,16189.4,22121.7,15624.3,22895.4,104092.6,53203.7,10051.7,36418.5,85398.4,32294.1,17308.1,14094.7,0.0,1057913.7,
237,0.41,9674.0,9616.6,11780.6,12250.8,11566.8,13444.7,13520.2,13446.0,22939.4,29133.8,9832.6,109637.1,42810.3,10555.0,29558.1,36405.6,45757.3,20143.8,19882.4,0.0,1133039.6,
238,0.541,11687.7,17408.7,21913.8,21652.7,19390.9,24813.8,25926.7,17958.2,27844.5,64543.8,8907.6,109281.3,85364.6,11106.8,29477.2,19081.1,97345.5,35705.3,50636.4,0.0,1398640.7,
239,0.47,13571.4,14098.5,18586.7,19736.9,18802.4,22269.1,22170.8,20909.5,33066.0,32686.3,9214.2,97020.9,45023.0,12680.8,43819.6,46136.6,54027.3,25128.0,20816.4,0.0,1297587.4,
240,0.477,9901.2,10773.0,15348.5,14653.6,11334.5,14465.0,16575.8,10988.3,14071.4,22480.1,7998.3,40136.4,27916.6,11123.1,23761.6,11719.1,32211.0,17094.0,20753.1,0.0,1292354.7,
241,0.399,10243.6,11222.4,13188.4,11725.1,13078.2,14771.8,13157.1,15515.3,20342.9,13645.8,11761.8,81779.4,31872.5,10117.0,29855.7,49787.9,30995.9,16122.6,11397.9,0.0,1333448.3,
242,0.446,12233.7,15316.7,14311.3,16229.3,14779.0,20115.2,19110.0,13362.7,26188.7,39097.8,19333.0,70347.6,39027.0,14620.4,16285.1,37933.3,50017.5,24509.8,32299.1,0.0,1276913.5,
243,0.52,12903.1,17003.6,21815.8,18236.2,17787.8,20232.3,21370.5,19180.7,25328.6,34966.8,25284.6,79619.2,35571.3,19979.5,20121.6,35929.0,23646.0,25861.4,39162.1,0.0,1239228.9,
244,0.377,8759.1,12015.0,12981.6,11075.5,11247.9,13370.9,12286.6,7294.9,14331.7,20458.9,7101.3,24319.6,19727.9,5971.8,11669.7,11833.6,22919.3,14072.9,21727.7,0.0,1324914.1,
245,0.466,8486.0,9957.4,10233.8,10949.7,10214.0,12491.3,11384.9,8964.6,16196.2,9981.1,6321.6,20458.4,12691.6,5574.8,12636.4,11772.5,14804.2,10352.6,12163.9,0.0,1213215.7,
246,0.494,15346.8,23357.3,22621.3,20535.4,23772.7,28197.6,25178.9,20773.8,29779.3,23157.7,20854.0,91113.2,43777.5,15717.0,25437.3,50864.6,48436.9,24218.8,28544.5,0.0,1268692.1,
247,0.4,14609.7,14850.8,15501.7,12626.6,15964.1,16768.2,14743.1,18637.5,20212.7,12422.7,28603.1,80072.9,27387.1,18554.4,50457.2,52518.4,23894.1,14491.4,10327.4,0.0,1232658.5,
248,0.26,15509.7,13158.3,19658.8,21743.0,15158.7,16042.7,17662.7,16122.5,19671.6,29894.8,16049.8,42857.8,29955.1,17441.8,33437.5,21986.5,25616.0,18230.6,38095.6,0.0,1160390.4,
249,0.372,16330.8,20348.5,23733.4,23507.6,23745.9,26657.1,26096.4,24040.8,36948.1,26866.2,19349.4,80941.8,48258.4,17870.2,47014.5,38980.7,34238.3,33962.9,31438.5,0.0,1206728.7,
250,0.47,14714.0,14803.0,13104.5,13426.0,15267.6,15273.9,12843.6,14456.3,15359.2,11576.9,12889.6,33585.1,12792.3,12410.8,18433.5,23051.4,14709.3,10389.0,11324.1,0.0,1145809.3,
251,0.791,11261.3,16212.8,26939.1,25291.4,15905.2,22836.1,28182.3,14865.2,31023.9,29628.6,10712.4,114423.5,51880.2,8020.2,35696.5,40018.7,51020.4,33673.4,34305.6,0.0,1229376.7,
252,0.581,8020.8,10992.1,12627.4,15726.4,10182.3,11887.6,13469.2,8703.1,9945.8,29707.2,15958.9,26186.8,23163.7,10854.8,18623.6,16026.5,43458.9,17058.3,28276.0,0.0,1103046.3,
253,0.367,12490.0,12471.9,8795.9,11899.8,12188.0,9962.1,8826.2,12013.7,8982.5,19616.7,13725.4,8245.9,17333.9,11770.7,18993.7,11731.1,15019.9,11497.3,20117.6,0.0,978269.9,
254,0.307,9813.4,17843.8,23189.7,18785.8,15378.6,19167.9,18848.4,12355.8,18961.0,19789.8,9864.8,19967.3,17484.2,8141.3,36909.1,19143.5,21556.3,16336.1,20640.9,0.0,1080244.4,
255,0.449,7293.7,8691.8,8027.7,10749.8,7999.1,8830.0,8683.0,5221.4,8960.2,4528.6,4070.2,8629.1,5179.6,5099.7,19962.4,7956.8,5151.8,7577.2,8233.5,0.0,925551.0,
256,0.329,9422.5,9216.4,13293.8,14670.0,10139.0,11944.0,12031.9,6420.7,12081.1,10991.5,4860.3,11185.4,14243.3,5840.9,7957.7,8319.7,10883.1,15302.3,15712.1,0.0,833493.6,Streaming purple stuff in the mix
257,0.554,19710.5,18897.7,22370.6,27536.7,19359.2,21230.2,23602.6,19061.2,23699.7,27968.9,19308.7,42088.0,36635.6,16345.0,38199.5,48733.8,55794.4,25298.6,30119.6,0.0,1006311.5,
258,0.572,10787.2,11239.4,12515.2,9343.2,10734.2,10874.2,11051.3,20576.1,14367.0,16835.0,15664.1,40085.5,22443.8,12431.6,20485.6,20717.0,40277.8,11177.4,12448.9,0.0,933327.2,
259,0.349,8593.0,8033.7,12370.2,12234.7,9921.8,10174.2,12303.6,8854.8,11973.9,14370.9,7564.6,17051.1,19206.6,6465.8,23636.0,12510.0,27638.6,16721.4,12224.8,0.0,1115207.0,
260,0.393,16136.1,21676.9,27853.7,21666.7,22214.6,27197.4,26128.9,23943.7,28985.6,19097.2,20870.0,22133.6,16927.9,19413.3,23208.8,21738.0,20150.2,21883.5,22727.5,0.0,1031664.6,
261,0.405,10224.0,11807.6,16090.1,14156.2,11088.4,13346.0,13906.7,12440.1,13334.1,13816.7,10064.4,14869.0,13460.7,9556.6,19616.8,15540.4,17965.4,13257.2,13753.5,0.0,1287662.4,
262,0.5,32419.2,30875.0,30219.2,22556.8,28338.7,29893.9,27885.6,32242.1,27510.4,24120.1,39929.2,34592.3,29752.6,40126.4,39647.2,35697.4,21600.3,25289.0,24071.9,0.0,1257781.0,
263,0.339,5777.1,7261.4,10450.0,9219.6,6451.7,8260.9,7746.7,9276.5,7399.7,6060.9,9298.0,8756.6,8067.9,7550.5,14002.8,6827.3,11964.7,9746.2,10029.6,0.0,1085322.7,
264,0.596,44924.6,39251.9,32205.3,35090.9,39218.8,35936.7,34178.6,43635.5,35049.2,31724.5,46549.6,30955.2,30725.9,47084.1,57132.1,39409.1,31020.0,33479.6,27190.2,0.0,1100396.4,
265,0.538,11118.0,17083.2,24645.2,21007.3,15052.9,17965.8,20212.3,15713.9,18829.1,20696.6,16038.3,30977.2,23137.4,14676.7,17726.4,20181.2,26469.8,21527.1,23760.5,0.0,1168655.3,Lighter or lighter blue coming in
266,0.451,12037.5,13573.1,14672.9,13138.7,13949.2,14705.2,13838.1,10427.1,14206.5,11712.9,18564.6,14559.6,11915.5,11107.0,22065.2,46049.6,17342.2,13047.1,15375.2,0.0,1185603.2,
267,1.685,20515.0,33861.0,32764.4,25842.2,24128.9,26714.6,29377.8,23246.8,39769.3,34255.4,20345.1,139864.6,54913.3,16112.4,43854.3,88131.5,88586.8,30272.9,23710.6,0.0,1186569.7,
268,0.645,27118.0,34271.1,39473.9,38826.9,32383.6,38896.6,40412.5,35189.5,47471.4,33940.9,30088.8,120958.3,52418.8,23484.9,57108.5,114844.5,103105.8,44518.6,29309.6,0.0,1322575.7,
269,0.379,7917.0,10592.7,11340.1,10110.4,9889.2,9805.8,10597.8,7945.3,10467.9,10525.4,4876.9,13253.5,8459.5,7362.5,21426.5,11524.2,8359.7,12676.6,11219.8,0.0,1032908.8,
270,0.336,15909.5,12512.3,12530.3,13700.5,15755.8,14100.7,12196.2,12783.1,14854.5,13245.5,17401.8,28611.7,16818.2,15457.4,18274.7,23480.1,14954.5,13449.9,13622.9,0.0,1275250.0,
271,0.31,10548.0,10341.6,9364.4,7486.6,10536.2,9789.3,8611.8,11657.1,10259.0,14694.3,10595.1,49549.7,25304.0,8845.8,24435.7,39889.3,42319.6,8127.4,10389.0,0.0,964716.1,
272,0.512,22017.1,28274.2,32794.3,36793.2,29135.2,34348.6,36782.0,31236.8,50795.9,37729.8,32678.5,159108.6,60350.2,21217.8,71496.0,114102.5,74250.5,43605.0,34315.2,0.0,1109858.3,
273,0.29,7407.6,9843.8,12537.5,10168.0,11610.5,12372.6,14042.7,8361.7,16281.1,25857.9,13945.6,67552.6,44879.2,11242.1,17494.3,37381.4,63277.6,19432.0,19736.9,0.0,1098026.6,
274,0.299,12082.9,12602.7,16085.8,12999.2,16582.9,20586.7,21317.3,14409.3,20651.8,10253.0,17562.0,81571.3,28159.3,13518.8,32534.6,46686.8,25749.9,16607.4,12557.1,0.0,1050033.4,
275,0.22,13958.6,12363.1,13544.2,13278.4,14622.3,16553.4,14988.1,20961.9,26830.9,12794.0,13069.2,71062.7,27155.8,16245.1,27328.6,21160.2,22470.8,16746.4,10778.5,0.0,987443.7,
276,0.452,16350.6,18254.5,23573.5,20657.1,19343.6,26311.8,24628.6,16358.4,30193.0,25639.2,32010.2,88101.8,41758.2,24148.8,44129.1,53720.9,30490.7,25878.0,29198.6,0.0,878054.4,
277,0.205,6901.8,6314.6,10918.7,10105.2,7654.3,9605.1,11482.0,9004.2,9921.1,15256.9,18066.8,87579.3,36283.9,9518.1,42675.8,69807.0,34263.3,15148.8,13353.0,0.0,829172.8,
278,0.3,7123.6,7062.3,6489.4,7491.9,9014.3,8406.3,8350.5,12760.3,13097.6,14663.9,18711.6,52553.2,10530.8,12298.5,37263.1,59334.6,16350.2,7576.2,9111.2,0.0,1058913.3,
279,0.248,16500.2,22443.1,24353.7,25655.5,25997.7,33086.7,33245.0,18514.1,34726.1,21103.1,17017.7,100682.2,47122.6,10011.0,26201.6,89205.7,92459.4,30558.4,27010.6,0.0,812329.6,
280,0.232,17395.8,19999.4,28783.5,26684.0,21787.2,26569.7,26544.7,16602.4,27533.1,28273.9,15605.5,80803.2,35016.0,12585.0,34449.7,37864.6,52200.2,26406.4,32305.7,0.0,760337.6,
281,0.411,40739.9,47072.0,45658.1,32745.1,46525.6,54566.4,48826.9,50671.1,70390.7,20963.4,26781.5,151600.4,54348.3,37376.9,54429.7,39563.4,39327.2,43181.8,25596.8,0.0,842786.6,
282,0.28,10391.5,14511.2,12994.9,8272.0,14968.6,16327.4,13340.0,17541.2,21897.7,7532.4,14178.6,87158.1,28334.9,11872.6,51880.4,27533.3,24240.9,13436.3,7395.0,0.0,752745.9,
283,0.231,11604.3,11580.0,13829.5,10673.4,14466.0,16119.1,16922.0,18228.9,27903.6,9383.8,18687.8,78819.0,30884.2,13653.0,39229.2,47689.0,26325.8,17958.9,13107.1,0.0,770946.9,
284,0.223,14796.1,16794.7,23595.9,20031.3,18406.3,22873.7,22892.4,20154.6,27001.5,16551.3,12192.6,54155.5,31473.2,11978.8,14611.8,32966.0,25327.1,24494.5,21860.2,0.0,832010.1,
285,0.256,9845.5,11596.7,10636.5,10208.0,11130.4,12665.6,10395.6,15325.7,13785.2,13095.2,10435.1,52718.1,17807.6,12452.4,30610.0,21629.9,20851.3,10149.6,15178.3,0.0,758209.9,
286,0.342,5625.1,7460.8,6863.3,5144.9,7708.3,10413.4,8081.0,6151.8,12290.1,14203.9,9627.7,50867.6,20877.7,7289.4,12414.9,30113.8,36054.0,5986.8,6864.5,0.0,754391.6,
287,0.219,7501.1,8798.6,11061.3,11808.6,7485.7,8451.4,9491.0,8010.6,9494.3,15444.3,6675.5,11049.1,12841.5,6170.7,13301.9,7698.6,11449.1,13076.7,16425.1,0.0,739917.3,
288,0.487,13458.5,15733.4,17217.8,20702.1,20140.5,26370.0,25988.4,16061.8,18776.6,26833.8,23231.1,36917.6,24504.9,17724.9,16111.6,41358.4,27976.6,25158.8,35352.7,0.0,787642.7,
289,0.246,7275.8,12450.1,16497.4,15905.1,14968.8,19765.0,17456.1,13599.8,20463.4,16227.8,15531.9,47261.3,23268.8,6252.0,56430.9,61438.3,35684.2,17128.0,14825.7,0.0,695336.4,
290,0.271,20537.1,23867.5,36623.9,34019.9,28538.4,35424.2,40181.3,29965.9,45034.0,46585.2,12974.0,77386.4,63083.5,16130.6,34223.2,32446.1,60399.3,45157.6,47280.9,0.0,745054.6,
291,0.348,11261.5,12193.1,15164.8,17733.6,13627.2,16390.3,16763.5,15569.6,21566.4,32192.0,11145.0,79212.8,49985.9,11704.2,22076.4,20972.0,76358.0,21467.0,20765.7,0.0,822421.2,
292,0.2,9392.4,7797.0,8210.4,8781.2,7533.0,7418.3,6646.7,15545.8,11449.7,12138.9,15709.4,41816.8,19839.0,15624.1,22433.6,11828.2,19732.2,8930.0,14429.5,0.0,770180.3,
293,0.291,22906.3,35785.1,41612.8,34736.7,34329.8,46882.1,45024.6,16055.1,34630.4,31753.1,17160.4,61627.3,20659.2,10690.0,27585.0,81007.3,109541.2,26587.9,22694.5,0.0,849968.8,
294,0.816,9477.7,18579.5,21084.3,14727.1,11134.6,16124.8,16259.0,7001.5,11455.6,18121.5,9458.6,21440.9,22601.9,4701.0,14516.5,27025.8,18973.4,16599.4,20797.0,0.0,873306.3,
295,0.27,4988.5,5668.2,8815.6,10533.2,7120.8,8081.5,9220.1,7993.6,8469.8,16479.1,11744.2,16788.0,16505.5,9759.9,20394.8,17530.8,16504.4,12133.9,16205.3,0.0,929461.2,
296,0.252,12519.2,15602.7,23085.2,21919.0,15903.4,21794.0,24173.8,9835.1,18266.9,19593.9,9333.2,35888.6,26862.6,8163.2,23200.7,21603.5,25543.9,21326.6,21095.0,0.0,909746.5,
297,0.587,4045.4,5584.4,6651.0,6795.7,5040.5,6388.1,6259.5,5571.9,8694.1,7109.4,5076.8,50849.6,13859.9,5031.8,12352.1,20266.2,16192.6,7339.7,9369.3,0.0,938314.9,
298,0.45,17984.2,22343.8,22848.1,24684.1,22140.9,21710.8,22677.7,22492.9,21457.6,21509.6,12393.0,28973.8,25917.3,14611.1,30274.8,18721.4,21306.4,22987.5,28690.2,0.0,1071505.3,
299,0.297,7557.9,7413.7,7725.6,10072.5,8173.3,9052.1,7593.1,8440.7,11102.7,12956.7,10029.8,19712.1,17547.1,7922.0,16253.9,14810.9,15864.3,11437.1,15129.0,0.0,1072060.1,
300,1.322,9369.2,12591.1,15389.3,14517.0,13048.4,12594.0,15650.6,11136.1,13945.4,12491.1,9409.9,17790.4,11356.4,10590.2,10872.5,14934.0,10336.6,12769.7,18383.3,0.0,1135213.4,Getting some comet phenomena - the wind around the dot - Wind going from right to left
301,0.68,12971.3,16189.5,17094.7,15687.4,14819.6,15447.5,15851.6,16104.6,17949.9,18911.3,11434.8,31724.0,23995.2,12042.0,16240.8,22262.1,28967.1,17238.2,17076.3,0.0,1030994.8,
302,0.582,11789.9,17213.0,18576.6,14598.2,17404.7,19933.7,17658.7,12405.8,20309.3,11900.5,9686.8,40378.3,15621.0,9394.0,24930.2,30876.8,40657.0,13904.9,15353.4,0.0,1023191.6,
303,0.581,8738.6,10717.7,11528.5,12200.3,10449.2,12098.2,13004.5,10785.3,17394.4,22431.8,14193.8,153042.3,64038.9,10870.4,49841.8,56683.6,102257.2,18367.4,17802.6,0.0,1138068.6,
304,0.348,10445.4,16327.5,18538.0,20063.3,15111.7,17404.1,16661.3,11546.4,17136.0,13087.0,9208.1,19318.3,15428.7,9944.1,21263.6,13409.2,13242.6,17393.6,18771.5,0.0,990849.4,
305,0.73,14701.0,14623.6,16828.1,21957.3,16649.4,19689.3,20947.6,27792.7,21289.6,25691.6,10834.3,23970.4,24672.7,9937.5,11390.7,15543.0,26432.6,25647.0,28241.8,0.0,1068647.6,
306,0.683,18039.7,18668.6,20163.6,11631.7,21359.3,22355.2,21555.4,22007.5,19421.5,14634.9,18741.8,28577.6,17804.3,16785.0,36930.1,20067.8,14475.8,23782.5,14008.4,0.0,1139893.1,
307,0.473,7737.8,12073.5,14772.8,10370.5,11532.0,12062.9,11968.8,14579.4,15619.7,8453.0,4391.6,24815.8,16692.1,7131.9,16531.6,5291.8,6405.5,15721.3,9485.8,0.0,935049.0,
308,0.654,10790.4,14942.7,18343.3,14709.1,12368.2,14216.4,14891.4,16706.4,15696.7,11343.1,8473.5,46421.0,24228.2,8143.0,21494.5,24833.3,22462.1,17126.4,13391.1,0.0,1037306.2,
309,0.461,16379.1,22594.9,20623.1,17653.9,21383.6,21951.2,18276.5,23615.6,23527.1,18272.1,12327.2,18774.9,17661.7,14121.9,25455.0,14803.8,25661.9,14661.0,16108.7,0.0,1030450.0,
310,0.397,7498.5,10127.0,15232.8,15173.3,10461.2,13018.5,17185.9,13133.8,15750.6,10125.6,7310.7,32867.3,13587.7,5254.9,20979.9,20904.7,7731.8,19563.3,14315.0,0.0,991285.4,
311,0.412,6067.3,11581.7,17978.2,14801.7,9946.3,14616.8,17469.1,5387.6,14136.4,10876.8,4451.7,55814.2,20965.2,2926.2,11442.9,11253.9,10509.2,14993.4,17272.6,0.0,975168.6,
312,0.296,11324.5,16114.5,17035.7,13957.5,15881.0,15872.1,16318.1,13543.7,17608.3,16126.5,6825.5,34228.7,20413.3,7011.2,18650.9,21141.3,20945.1,14477.7,14183.1,0.0,969776.9,
313,0.438,13796.1,15447.8,13618.6,14946.6,17846.6,17717.9,15930.7,14467.6,18916.4,11591.1,7532.6,33642.4,20567.3,9036.4,20021.1,15387.2,22900.1,14211.5,14414.2,0.0,947585.6,
314,0.363,10335.7,6486.7,5882.5,8872.2,8573.3,8337.3,8861.2,12470.9,12792.4,8220.0,16843.0,18114.0,12178.5,15546.8,25304.7,12223.0,9478.7,11048.7,9488.4,0.0,860076.1,
315,0.335,11070.3,11680.6,11006.8,9362.7,13200.9,15076.2,14757.3,13498.3,15744.7,12944.3,8740.3,32495.4,18564.3,9937.5,11972.5,13696.3,18309.8,14046.2,10770.5,0.0,882028.7,
316,0.353,14285.6,14028.4,14043.0,14767.2,12679.9,14205.8,13893.1,12879.0,14714.2,17622.5,11273.3,23787.2,22187.3,12329.7,19179.4,13251.0,21699.3,17376.4,17768.4,0.0,842939.5,
317,0.314,9404.9,10878.6,12885.9,12869.9,13510.0,15776.7,15315.8,17894.5,21883.3,21208.5,15263.4,37330.8,23445.9,12654.9,20884.0,30412.1,34164.6,16516.7,15039.1,0.0,937722.8,
318,0.425,17831.3,18815.0,23274.1,20965.2,20650.9,21892.9,23843.7,20231.5,27092.9,59581.6,18336.5,57756.1,42266.5,14856.8,24340.5,36775.7,68415.2,21761.3,30524.7,0.0,851822.4,
319,0.403,18552.4,18407.8,19091.7,22232.5,20670.2,24806.2,24175.1,19452.8,33092.7,37103.3,26558.1,82141.4,56080.6,21663.4,31045.3,39481.6,82405.9,27535.1,28834.9,0.0,836879.0,
320,0.283,15566.7,17342.1,16390.7,13656.2,17954.5,21600.5,19473.8,16479.1,22938.0,11507.6,10453.9,27189.8,15822.6,16422.2,14330.2,8680.6,17367.7,16253.0,12431.4,0.0,790927.8,
321,0.319,11905.5,13705.3,13938.4,14784.6,15924.3,16074.0,14963.1,14312.4,19278.0,19918.6,8923.7,75154.7,26229.7,8289.1,52703.7,36090.3,30759.9,12244.9,18022.8,0.0,736192.9,
322,0.325,18258.6,23842.9,22061.3,21288.1,24046.5,25058.9,22192.4,27811.0,24587.1,17654.5,19903.4,31157.2,17284.7,21119.0,28900.9,25048.5,18892.7,18821.6,23290.1,0.0,891583.9,
323,0.466,37966.0,42191.8,51325.1,47651.0,44068.7,48235.1,53359.5,51611.9,58559.0,41959.9,41060.0,73764.6,46044.0,46619.5,43366.1,47349.3,40958.7,53714.7,53812.9,0.0,1043943.6,
324,0.404,12412.1,14285.4,14808.0,16180.3,12372.6,13121.6,13306.8,11540.3,18064.0,29743.7,9724.6,54133.7,40582.7,9450.9,16017.1,18378.9,51605.1,19554.3,23888.1,0.0,971254.5,
325,747.438,527032.8,4622667.0,6811741.4,305142.3,152605.9,122047.8,33311.0,24165.5,38367.1,25320.9,17754.3,40748.1,30869.2,12548.4,15698.2,40316.2,65250.2,25903.9,20849.9,0.0,1007463.7,FRUITION-CALC
326,13.856,22542.1,69610.9,46007.6,19755.9,26844.0,22270.4,22954.6,17321.1,19882.3,21984.8,17269.4,24883.7,22118.4,15381.3,19104.2,20032.6,28345.5,19504.7,18240.3,0.0,877518.3,
327,1.199,16240.1,20444.0,20840.7,17706.7,14445.5,13284.3,13914.5,10750.0,13573.5,30639.1,12474.7,21404.8,25014.7,11658.5,17790.9,17143.2,29940.8,15305.5,24128.1,0.0,1126916.8,
328,0.695,10569.2,12445.2,14471.6,11402.8,11414.5,13728.0,14372.0,14431.1,27889.4,27584.9,24912.4,161562.3,72533.5,10486.5,50002.8,119718.3,141328.4,17678.7,12555.0,0.0,892192.1,
329,2.032,14091.6,16345.5,17319.8,14498.1,17276.0,18496.5,16513.8,17323.7,25558.0,32661.0,18720.9,106208.3,49698.6,11286.4,38737.3,121298.1,161564.6,15494.2,12834.4,0.0,1444148.2,
330,3.673,11722.2,15836.8,19329.9,13186.4,17390.5,19965.0,18516.8,14039.5,21215.8,20924.7,21948.8,75223.5,32618.9,11536.6,21684.0,87010.0,69416.0,17657.0,15520.1,0.0,1755830.6,
331,4.45,6040.9,9144.5,12049.1,9849.6,8288.9,10812.0,10896.2,8008.3,10257.8,22452.5,13994.9,60548.3,24640.5,7699.8,11626.1,78936.0,107318.2,8985.1,11539.2,0.0,1142046.3,
332,3.261,8381.0,10213.9,10663.4,7413.6,9635.3,11731.3,11516.4,7981.3,12785.8,7979.4,26545.9,58336.4,15217.2,13236.5,20625.4,96576.3,69375.5,8591.1,7477.5,0.0,1687212.5,
333,2.395,11859.4,11555.6,13044.9,10772.2,14302.7,12800.4,13569.5,16734.0,27172.8,13104.6,16179.7,131307.1,47320.7,11876.1,39792.1,79237.6,88123.9,18103.4,9924.2,0.0,920211.6,
334,1.375,6045.2,6879.6,5605.1,6622.2,6761.2,6992.7,7082.8,5792.2,10504.4,24642.6,17522.8,101976.0,58741.1,6073.9,20418.9,65918.7,160669.1,9350.7,10214.8,0.0,931971.6,
335,0.851,10006.5,13287.8,9723.3,10132.8,8431.3,8309.9,9009.3,6799.7,12416.5,22338.3,10597.4,59199.6,34615.8,7639.9,16572.6,62621.0,69616.2,11506.1,15444.1,0.0,829509.8,
336,0.665,14232.4,19384.3,29080.7,26056.4,24103.8,30285.9,31496.8,18369.8,39930.5,39934.0,25194.4,66176.1,54492.8,11847.4,34523.1,71436.1,72775.9,30494.6,22971.1,0.0,811626.8,
337,0.364,24293.5,27073.3,27472.9,21446.4,27019.8,27776.8,26464.7,25988.6,28788.1,22895.1,29461.9,57657.1,27697.5,20583.3,47049.6,87794.0,68082.4,22483.0,19964.1,0.0,956149.3,
338,0.447,23119.1,24461.4,22397.2,23933.3,22947.2,22344.2,22723.9,22644.8,21782.7,33128.8,27469.3,94331.3,58235.2,21481.0,39352.3,94282.2,138981.1,23575.8,29443.9,0.0,805571.8,
339,0.285,13515.0,15937.2,18505.7,14468.1,19072.1,22904.7,22257.4,14740.5,19185.0,53608.7,16347.5,145502.7,86973.0,12552.2,33378.9,110421.9,249679.9,18896.5,20028.7,0.0,732098.8,
340,0.358,11602.6,13080.5,12220.2,7819.8,13545.5,14595.2,12327.8,13208.0,16268.7,30277.5,19238.0,97823.0,59485.5,11400.0,39470.1,79463.6,163904.2,10962.9,9505.0,0.0,811915.7,
341,0.268,14148.4,18427.6,15921.3,14566.0,18817.5,20043.0,20582.5,23897.9,27632.2,24362.7,21486.0,109710.5,63521.6,19080.3,60008.8,59799.4,58186.8,26631.9,15144.8,0.0,869287.4,
342,0.249,15725.7,15468.7,17123.1,15080.4,16969.7,18314.5,18566.5,24466.9,24500.5,17158.9,13780.7,71883.9,40311.9,15878.7,37171.3,25217.4,56567.7,15848.4,11451.7,0.0,717373.6,
343,0.728,19958.8,20521.1,20957.2,18634.4,21457.9,23709.9,21790.4,16937.6,23279.4,21617.8,17186.3,52166.1,28069.4,12944.5,31334.0,72181.5,37054.3,18595.4,25313.6,0.0,718567.0,
344,0.44,10629.5,14295.5,19050.0,20492.4,14571.8,19017.9,21181.9,14003.6,23422.3,19807.8,14497.8,59888.4,23761.9,9165.7,24948.4,57255.0,20381.3,21377.1,21052.0,0.0,636402.5,
345,0.346,10423.7,14291.1,20663.5,19540.2,18000.4,22134.3,22556.4,19270.6,33386.6,22434.0,19036.5,122238.5,44713.4,12134.6,35430.3,81077.4,63025.0,26305.6,22078.4,0.0,626868.0,
346,0.277,12929.4,18994.1,23053.7,18946.8,17328.1,21037.1,19598.2,10415.4,23088.9,21010.4,21076.0,233579.6,80806.1,7518.8,53728.3,123203.9,131519.8,19235.5,16622.8,0.0,617236.5,
347,0.432,10128.9,18720.6,16790.4,11602.3,15703.2,17949.2,16558.8,7569.1,20916.7,22457.0,12073.4,187103.6,73525.0,4513.0,33522.3,87474.1,125503.1,14889.2,10206.1,0.0,709853.9,
348,0.248,17697.8,18697.8,23429.3,21916.8,22206.0,26780.4,26102.1,16033.3,34441.6,35877.8,11837.3,166704.9,92443.2,10183.3,40056.6,62777.8,143448.4,29390.1,18176.4,0.0,760361.7,
349,0.352,8520.3,12352.4,17069.0,14749.1,14772.3,19589.8,18137.8,15888.6,24527.0,29945.3,13124.1,155816.0,68213.4,7457.2,42013.3,62852.2,128004.9,19272.1,16458.7,0.0,827691.7,
350,0.349,11616.3,13808.9,16903.9,15303.0,16889.7,19940.0,20587.7,15615.9,34551.1,23049.8,8046.8,214915.3,95577.3,11157.1,43428.1,62652.0,106231.8,28258.4,12881.8,0.0,841789.1,
351,0.508,27070.6,31727.2,33930.0,35417.9,32760.7,38244.5,40592.4,30101.2,46395.6,57824.6,34793.5,167249.1,88412.3,24265.0,74584.8,110546.8,112445.6,45315.7,48117.7,0.0,966907.2,
352,0.453,28239.2,29047.4,31326.5,32251.1,32270.4,35220.6,34413.4,32663.7,48078.5,56850.0,21085.8,223152.5,119422.6,22940.5,43451.1,56758.4,160193.4,44855.3,40320.7,0.0,846358.2,
353,0.339,13564.8,19713.9,18015.8,14972.2,17139.7,19465.6,18337.8,17586.6,22986.7,56915.2,25840.5,147670.3,85589.7,14320.2,47852.1,98681.8,193749.6,22703.1,21000.8,0.0,756253.1,
354,1.428,16314.9,21108.0,25010.0,21425.3,22011.5,26440.6,25507.4,23295.1,30270.7,70612.6,41055.6,238090.2,129511.3,18853.4,65106.9,198182.3,256649.0,32613.3,26765.8,0.0,837866.5,That was an impermanent store fruition that took the spinning little bright gears around the dot as object
355,0.382,10615.6,11458.3,21230.5,19246.8,15511.6,20210.7,23548.7,17050.9,30721.7,42328.8,12960.4,84217.4,65348.1,10363.9,60959.3,60961.4,73090.7,33415.9,23806.5,0.0,882578.3,
356,0.282,11239.4,13258.3,15512.8,15137.2,14412.5,16149.6,16628.4,15788.4,20818.8,27995.0,27883.3,88844.3,57248.1,16177.7,34446.4,74697.8,116894.2,22484.4,22675.3,0.0,898336.3,
357,0.276,7027.6,9185.3,14315.3,13274.8,10345.4,12523.2,13709.1,15206.7,29568.5,37122.1,34633.9,276222.1,112935.9,9752.7,69638.0,211279.5,187041.8,22590.4,19112.5,0.0,910626.8,
358,0.291,29660.2,30050.2,32973.2,31413.2,36847.6,40716.7,35982.6,30936.8,53105.5,22352.9,22809.4,224055.7,65640.3,17382.7,46554.7,137698.7,113754.0,31272.8,19352.1,0.0,910706.7,
359,1.039,15809.1,22216.1,32974.8,27769.1,23440.4,27603.1,29172.2,17887.2,23517.1,32850.9,12817.3,121484.0,57235.3,10997.8,40296.7,80883.8,164400.0,22716.0,19630.4,0.0,787381.1,
360,0.483,22360.9,27076.4,22047.6,14175.2,26768.3,28343.8,21624.1,22770.9,38566.6,51729.9,23176.1,221284.6,107464.3,12625.8,62293.0,135757.6,214403.8,27474.7,16107.1,0.0,731930.1,
361,0.476,17350.7,24799.4,21416.5,16713.8,19508.5,22780.7,17334.0,14621.5,24279.3,22833.7,19418.7,118840.5,57868.2,13213.0,33846.9,75788.6,63656.3,21379.4,18655.1,0.0,889063.2,
362,0.63,14909.1,17533.2,18457.2,18966.8,15626.4,18853.9,18272.5,20530.6,25794.3,20132.6,21010.3,93322.7,27462.4,11741.2,50765.3,97137.9,32380.9,17738.6,21700.0,0.0,709243.9,
363,0.453,19890.9,26890.6,30381.2,23084.0,34404.9,35355.2,31135.7,25085.9,30381.6,20946.8,21666.1,118029.9,45817.1,16847.0,37983.1,84883.0,91350.6,25100.6,18289.5,0.0,714593.5,
364,0.392,17401.9,34998.3,33388.9,30959.4,50003.3,48764.5,46859.9,52840.2,54263.1,33679.5,25783.4,151236.2,68223.9,17122.9,65729.8,144391.4,187956.2,43002.6,21719.8,0.0,758432.2,
365,0.284,15098.8,12538.8,11872.3,14201.8,19661.2,16967.7,16763.7,30069.0,35145.2,17071.8,23366.9,125206.4,36154.7,14193.5,52584.3,93649.4,57497.5,29344.0,11798.9,0.0,630086.1,
366,0.262,20893.2,22743.3,20268.9,19705.3,23898.7,26973.5,23251.0,20752.6,37620.1,28140.3,6187.2,42066.3,34699.2,10124.5,17716.9,19101.1,28694.9,28926.2,25033.8,0.0,669046.0,
367,0.25,22128.4,31081.2,36840.7,25551.1,34470.2,44612.1,46902.3,32546.0,66387.9,26108.2,31792.8,157668.1,65124.1,14873.6,55684.2,118047.7,105806.9,43950.0,18698.7,0.0,611939.9,
368,0.312,26108.0,31303.6,36211.2,33068.9,35530.2,41825.4,41783.3,40193.6,62448.2,22869.0,42636.8,220880.8,71211.0,25618.8,85363.7,139384.3,33274.6,45275.3,31135.6,0.0,599911.1,
369,0.305,21887.1,30702.2,38316.9,34764.8,33399.9,44876.2,41317.0,24354.7,48134.5,44414.1,27692.7,200299.2,112821.5,15068.5,49394.0,113628.8,131332.8,46780.0,34479.0,0.0,761344.2,
370,0.207,7191.9,11162.6,18019.5,19383.5,14338.9,19077.7,22247.6,12761.3,31804.9,15502.1,12061.3,75193.4,32438.0,7136.1,49854.0,41481.0,44540.7,25353.7,19048.5,0.0,640706.3,
371,0.255,16249.8,21356.2,26627.8,18934.6,22250.4,24148.4,18859.1,16190.8,19503.1,20594.4,13203.4,19910.5,20102.9,21718.8,16379.8,9783.7,20978.6,18840.9,21250.1,0.0,747101.3,
372,0.261,9457.5,11118.3,14110.9,10973.5,11850.1,14406.2,10984.3,7780.4,11678.8,6234.9,11515.7,20922.7,6215.5,6984.1,22174.4,54801.5,22297.0,9240.1,6345.8,0.0,729408.2,
373,0.41,13621.7,17314.6,23438.6,25993.5,23900.5,29778.4,30429.2,18890.2,37290.6,29752.1,25298.0,106611.2,48408.1,11761.9,33679.0,104079.5,50481.0,30019.6,23955.4,0.0,738902.2,
374,0.306,9220.9,15847.5,19342.7,14182.2,15253.3,19943.4,19354.8,11875.0,26138.6,35281.1,9902.6,104934.5,65802.1,7811.7,24238.9,32516.3,90195.2,22615.9,19639.1,0.0,769516.3,
375,0.383,11727.8,13219.4,21869.1,22684.4,18682.6,24268.1,26464.8,27919.5,46824.7,36953.8,32749.6,218798.2,87273.3,16186.8,93631.6,162639.3,153788.1,37220.4,21729.9,0.0,709403.0,Nice afterglow sinking down into it to enjoy it in the body a bit
376,0.548,24512.2,27370.9,34261.8,34312.2,34646.2,42315.2,44203.3,37685.2,62233.0,30655.2,26395.6,257234.8,108427.5,24118.3,89553.5,72906.1,127668.1,48875.2,28607.3,0.0,888934.1,
377,0.498,25691.0,29710.1,44405.3,36519.2,40588.7,45968.4,47615.5,42922.1,62812.8,32907.1,23679.3,183635.3,86376.6,24746.3,48092.3,86257.2,135833.0,51273.7,27531.5,0.0,762280.5,
378,0.663,33117.8,35924.6,48431.1,46654.9,45525.1,52250.0,55810.9,50447.3,81628.5,60706.0,52277.6,213540.5,109994.1,37467.4,81840.3,172567.5,131778.0,68812.8,46554.0,0.0,738466.5,
379,0.574,30918.2,35923.2,41773.5,42886.6,42824.6,46413.0,47168.2,39331.9,59095.1,74553.7,35179.5,140151.1,95036.9,29836.2,70552.7,91099.8,165184.0,52754.1,48935.4,0.0,944785.1,
380,0.439,18486.3,28032.7,26346.4,22394.8,27125.9,34709.6,30525.0,16412.5,33710.2,29666.5,15539.6,81025.0,48123.6,10522.5,43300.5,62518.8,126224.8,28478.9,20371.7,0.0,786329.7,
381,0.94,15041.5,16968.7,20919.3,17118.5,21989.1,25655.6,25419.2,19714.9,32935.0,29267.6,14977.2,120583.2,51158.4,6836.1,29076.7,78274.2,126954.7,27516.4,12544.5,0.0,821323.7,
382,0.276,17162.9,23080.2,28703.0,26899.8,32327.2,40352.9,38918.9,27967.9,63307.5,37769.7,22540.0,232459.5,99957.5,11436.0,44310.3,99240.5,160476.0,47768.1,23434.0,0.0,778665.0,
383,0.298,39475.0,45955.0,37869.1,32996.1,45849.0,49145.2,45031.7,35904.0,59894.3,28708.0,19283.4,87541.3,42430.8,25265.5,42218.4,83394.2,100371.8,43224.6,33327.0,0.0,776074.4,
384,0.298,30988.8,34393.9,37237.0,33967.0,38268.1,41140.5,42189.5,30025.9,53295.6,21887.1,18268.9,87732.6,33900.2,20044.2,32251.0,117863.3,63933.1,38925.2,34805.5,0.0,838357.4,
385,0.278,19526.0,22524.8,26166.9,21962.7,22441.6,24943.1,23496.9,22759.1,25638.0,50243.8,23392.0,139270.0,63987.1,20615.6,51968.5,87643.7,163723.3,18233.0,19314.3,0.0,698739.3,
386,0.278,24190.6,20327.1,16806.6,13962.3,26560.9,24849.9,23810.0,34006.5,38442.0,61015.8,39185.0,259996.4,114246.2,27582.0,81457.1,150385.9,200989.2,29535.7,23913.4,0.0,692033.4,
387,0.211,7352.4,15830.3,31756.2,28384.1,19321.6,29803.4,33939.6,10145.1,31506.8,8221.1,15757.7,30059.3,12899.8,3579.2,9842.5,88039.0,44428.1,28452.7,15706.2,0.0,851071.3,
388,0.294,19335.4,23888.8,23266.3,19209.2,24486.5,28622.5,29181.5,19514.1,36706.3,26929.8,21612.3,140036.8,50308.2,12681.5,37205.5,94967.1,125402.1,23602.6,24428.4,0.0,759482.1,
389,0.236,28619.6,35684.7,29307.3,27399.8,32398.1,33289.5,34548.7,26643.2,44482.5,29129.0,9225.7,217428.9,92042.6,14568.9,30161.8,47754.1,95528.9,39151.9,24731.9,0.0,885368.3,
390,0.217,12122.2,14848.6,19632.0,22351.1,12875.0,18047.8,19749.9,7513.0,18850.6,70149.1,16263.2,110442.5,86302.5,9007.6,25634.7,52694.7,137673.1,27808.6,43196.4,0.0,649918.2,
391,0.723,20486.2,23000.7,28502.2,22420.9,27965.4,32994.5,31226.5,26900.4,50447.5,49656.3,25147.6,252511.2,126344.1,18755.2,51773.4,81972.4,207687.9,37807.9,27252.5,0.0,658057.1,
392,0.28,38486.6,45126.0,43562.9,38360.7,50766.5,59298.9,51121.2,41353.9,63905.8,30910.0,25639.2,123391.3,61500.3,30506.4,36714.0,76386.9,127360.3,46090.2,39946.9,0.0,674997.6,
393,0.419,25675.3,37334.0,29996.9,28651.8,31594.0,32901.5,30522.5,22479.9,38098.5,47397.0,21005.7,192838.0,92714.5,18000.2,45424.6,95947.7,176130.3,34141.5,33936.1,0.0,630191.3,
394,0.334,32487.0,41625.0,45974.6,43529.9,45930.7,55138.2,56066.6,31148.2,67822.1,18203.1,24595.4,112987.3,48136.7,21386.3,27689.0,42840.3,75715.8,51935.4,28762.6,0.0,664000.5,
395,0.395,35524.1,44035.1,41605.5,37877.2,43876.7,52102.6,48055.9,33191.1,53386.2,24090.3,21631.2,123811.2,40573.6,27743.1,34245.1,82252.2,62867.7,40875.1,32159.7,0.0,606566.3,
396,0.249,23988.0,29791.9,37967.1,36210.4,31061.3,39175.6,42867.1,20515.1,45445.6,35359.9,35927.3,125211.4,41582.1,22197.4,43168.4,96315.8,74709.6,35273.7,33563.2,0.0,623279.2,
397,0.262,26343.1,26301.0,36524.6,38840.3,35003.5,36390.8,38054.3,40630.4,60288.7,56062.3,18580.0,102600.8,49411.5,23753.4,96350.5,46689.6,63376.9,42603.9,47093.0,0.0,517550.1,
398,0.258,23343.9,25317.6,32901.8,30272.8,32076.4,43526.2,42687.9,21589.9,46678.2,24314.1,26233.6,113149.8,54489.5,11056.6,41410.6,99387.2,84066.8,36207.7,24210.8,0.0,523564.0,
399,0.46,14673.6,17184.8,20381.7,15508.2,22435.1,26379.3,22259.3,35465.5,36378.8,19552.2,23987.9,192534.5,49428.0,20918.4,72800.8,109512.8,91930.2,20907.1,12262.3,0.0,573602.6,
400,4.71,15143.8,28620.9,21842.2,11689.9,19132.3,21433.1,18025.1,9297.4,19261.5,24046.6,21798.4,98288.8,43422.9,6680.2,30252.5,142735.8,148262.3,11960.7,6286.2,0.0,585296.6,
401,0.298,9455.0,14983.6,25338.1,31038.9,18191.0,25079.8,27171.0,11898.6,22337.1,83243.0,27764.9,116187.5,85404.1,9000.1,42345.3,129387.5,189507.6,29412.8,41657.6,0.0,578694.8,
402,0.493,8701.7,9816.2,10461.9,14260.7,12502.6,14526.1,13217.8,18010.1,22832.9,53042.8,32241.5,127486.6,88098.1,14966.3,59983.6,96056.4,169111.7,24941.4,28327.8,0.0,593033.1,
403,0.235,23116.1,28455.2,37822.5,36465.4,27901.0,32861.6,38258.1,21231.3,30914.3,29808.5,21389.1,77017.0,50208.3,22682.5,35179.3,72228.8,86595.1,34707.7,33052.8,0.0,620891.6,
404,0.242,25024.9,27065.6,20860.6,16544.0,28399.0,29581.9,27066.6,20509.7,32011.9,12345.4,4972.8,52582.1,24286.7,11760.0,18261.1,26515.8,40925.9,20624.9,10559.5,0.0,622435.1,
405,0.269,18817.6,22293.4,29644.0,20555.7,25936.1,31021.2,28659.9,15976.5,26691.1,12630.5,17171.5,42249.2,20081.7,14375.5,16704.7,47707.5,43946.1,20409.4,9923.7,0.0,505826.0,
406,0.292,13838.3,14354.2,17808.2,21287.1,16803.0,17852.9,17870.7,20108.7,26647.1,45550.3,23281.5,53597.6,43891.9,16162.7,35199.2,56749.5,70411.8,20782.3,34658.6,0.0,679459.0,
407,0.569,11689.3,13539.5,11992.9,12462.9,16360.7,16823.5,11654.9,14774.0,19931.7,43815.7,16925.6,76127.5,56074.1,12883.7,32727.5,58619.1,106933.9,12768.4,19692.6,0.0,531547.0,
408,1.152,23151.6,53171.1,42579.1,28695.9,28557.3,30357.7,30810.7,19752.4,29049.1,19300.3,17703.3,37338.2,30016.9,15257.6,20206.4,48227.8,82685.5,27986.8,19961.4,0.0,659325.5,
409,0.23,14047.1,18881.5,21129.1,20556.0,17938.4,20777.8,18995.2,14267.0,27202.4,25767.9,16200.7,114827.6,49363.2,7890.1,48770.9,94749.4,58325.9,21872.2,26538.3,0.0,709286.5,
410,0.208,22048.1,26147.8,25833.8,21958.8,29497.7,33980.3,32801.7,19228.0,39137.0,28467.2,25423.1,76756.0,39282.3,14351.1,35947.3,90268.1,59392.4,31651.8,26427.5,0.0,591004.1,
411,0.219,18144.5,20958.4,28900.5,32972.7,20251.1,24323.3,26992.3,14954.2,18750.1,40640.0,22358.6,62820.8,42547.2,19309.4,30980.2,62247.8,63989.6,26821.2,38328.7,0.0,561699.7,
412,0.285,35259.7,39936.8,21370.6,15293.5,35100.9,31004.4,24327.4,23534.9,31763.3,18358.3,11246.5,68378.0,34898.5,19958.8,36711.2,27810.5,62652.4,20265.2,11589.4,0.0,524762.3,
413,0.245,17029.6,20365.9,26116.2,23319.7,28024.0,30933.4,30013.3,32265.0,40867.9,41971.7,44446.1,108695.0,47622.2,29155.2,60965.8,109627.9,82441.0,29723.0,27693.9,0.0,477519.2,
414,0.264,12901.6,21653.0,36554.9,39470.7,23892.4,33605.5,37840.5,20039.7,36313.3,28258.4,27674.2,56667.2,32489.8,14414.6,32732.1,69349.6,66999.8,33296.8,40754.5,0.0,402716.1,
415,0.215,9989.1,13449.5,17852.1,17838.2,15224.0,18660.3,21508.7,15630.9,24406.3,29825.7,11143.9,31419.2,35670.2,9936.3,33851.8,21353.7,54019.5,23849.2,23279.4,0.0,463152.8,
416,0.215,19075.0,21570.3,19539.1,20670.3,21373.2,26081.8,24620.3,18873.9,22398.5,22409.4,17030.8,75410.2,49032.6,14887.5,41094.8,49726.6,89705.7,18837.8,18998.8,0.0,421678.7,
417,0.235,15097.8,21800.0,25438.8,23224.3,23774.3,28639.7,27059.2,18840.6,26191.4,24399.8,14628.7,34842.2,29143.7,14152.7,37229.3,41947.2,33876.0,22740.5,23405.2,0.0,524954.1,
418,0.3,4560.7,7712.2,9226.2,7589.3,7980.6,11296.2,9960.6,11138.3,14282.1,15226.5,26021.9,38686.2,20519.4,12662.9,35023.6,59271.0,25771.8,10955.3,10223.0,0.0,487553.9,
419,0.333,12847.0,17041.9,29680.0,32548.7,20784.2,26744.1,31747.1,16626.5,30011.9,41299.8,23135.1,79724.2,54972.7,14682.4,40598.9,93011.3,83504.8,33384.9,38175.1,0.0,536746.4,
420,0.279,31985.8,32012.3,30833.2,32574.2,33206.7,31539.7,29576.0,30596.2,28118.7,30746.0,24312.1,36831.9,26548.1,28060.1,39623.8,58233.1,41824.2,25599.8,34937.9,0.0,517688.2,
421,0.21,12730.8,15760.9,11577.8,9442.9,11681.0,13473.9,11867.4,11073.9,11467.2,16242.0,24304.6,74269.1,20815.4,14749.5,63913.7,87481.7,65204.6,9488.4,12166.8,0.0,562436.0,
422,0.24,7500.1,8373.3,9848.8,9743.0,6445.2,6329.7,6739.0,7806.8,5349.8,12558.5,14172.1,29208.1,10361.7,8619.7,51032.0,42396.1,20592.5,7278.5,15034.4,0.0,436948.1,
423,0.214,18581.9,16768.7,17816.2,12346.1,22599.9,22668.4,19029.0,23342.6,20752.1,29869.1,27440.2,55260.8,36129.9,22048.3,55312.8,79961.1,65823.8,15326.2,15028.0,0.0,456479.6,
424,0.223,23564.9,25622.2,24389.3,21048.6,26165.6,27530.0,26864.6,19195.3,30168.2,30965.5,16346.2,61936.5,42941.4,14247.3,133671.7,63960.5,122818.4,22378.2,16065.0,0.0,471707.5,
425,0.489,13295.3,16930.1,21704.6,19356.0,18863.5,23215.5,20609.4,14864.6,22765.6,26685.7,26605.8,91603.3,49446.8,12030.3,64677.1,98902.2,102759.7,21130.4,23058.5,0.0,390025.1,
426,0.201,14379.7,13160.8,9125.8,10279.2,12254.3,11886.1,11237.3,18416.8,7531.4,25608.2,23000.7,57605.7,18726.5,22431.0,44926.9,54656.7,21673.8,11089.8,19941.4,0.0,439851.5,
427,0.203,8276.3,9356.7,13628.4,15898.8,6939.2,8564.0,10576.6,12004.9,9677.7,27149.6,22744.0,35682.8,18315.7,14663.5,98252.4,39977.3,23981.6,12163.4,21340.9,0.0,434491.7,
428,0.243,25901.8,31806.9,28311.9,25441.2,29748.4,32957.3,30564.5,26891.9,43341.5,25596.9,25338.6,135344.7,56433.1,19735.1,58231.3,90394.8,55884.1,32526.2,28999.8,0.0,475797.7,
429,0.331,16523.8,32929.8,39958.8,34406.5,30749.6,42829.1,42519.4,17307.5,45824.3,21592.4,26464.0,137671.3,68219.8,13582.0,35880.7,92179.1,101416.5,36509.5,24885.0,0.0,401186.3,
430,0.229,18662.7,29269.0,39097.9,34506.3,34917.3,44241.2,43613.9,19237.7,42285.1,46664.0,13306.4,67404.8,53930.3,12487.4,26598.0,52052.1,69594.0,41193.2,44070.8,0.0,444082.8,
431,0.21,19853.9,25631.7,32696.5,30588.5,27414.2,34972.9,35744.5,23193.5,33691.1,29885.1,14069.2,30755.3,26413.7,15684.3,25182.4,32042.6,56692.9,32767.2,30205.7,0.0,499956.4,
432,0.336,16095.2,24121.8,25263.2,19510.3,22260.6,27445.9,25131.7,14822.2,23202.2,27261.1,38643.9,84853.2,43834.5,16070.5,57287.5,138125.1,120393.3,17996.4,20470.4,0.0,481810.5,
433,0.229,11758.0,14438.0,14542.9,14857.9,13430.5,14985.7,15081.2,13681.0,18982.1,46321.8,15295.8,156335.2,98349.6,15404.8,38846.9,77845.6,163038.5,19448.9,22473.9,0.0,449727.2,
434,0.4,11566.7,13326.0,13339.5,15656.3,11294.3,12510.2,13626.1,9898.8,14170.7,37484.9,15422.8,68429.7,48108.6,10067.2,30902.1,66128.2,72408.3,17867.7,25195.8,0.0,441161.9,
435,0.449,19617.9,22093.4,18777.5,14115.9,26663.4,27995.4,21219.7,19245.8,25824.7,26548.0,14609.2,47060.7,30439.9,14850.1,27253.0,50912.0,125303.8,11418.3,8117.7,0.0,394847.7,
436,0.336,33392.8,42519.8,40862.0,32436.1,43688.9,47430.1,44251.1,35886.3,47428.6,30758.7,28482.3,87477.7,42811.2,27722.1,43008.4,78738.7,105192.8,31114.6,24711.3,0.0,467056.0,
437,0.226,16532.1,26234.5,34051.3,28782.1,21667.6,31442.3,30953.7,10543.8,22549.9,72297.9,21560.3,78481.6,53414.2,7166.4,96588.3,104620.3,132624.3,24530.3,54098.3,0.0,464500.4,
438,0.198,15473.9,18515.9,23239.1,24338.9,18415.4,21166.6,24342.3,15053.0,22022.4,27245.9,20653.0,57278.2,31978.1,15861.5,74299.2,81157.3,99994.1,24491.2,36449.0,0.0,359031.6,
439,0.255,15465.0,16513.9,18666.5,19888.0,20802.7,22416.7,26043.4,23862.1,36740.9,30937.3,15021.6,111789.8,46288.0,14672.0,110021.1,51130.2,78642.9,25833.8,22044.8,0.0,414020.6,
440,0.284,20461.7,19503.9,18735.1,17430.1,21747.1,22550.8,19276.4,20413.2,22526.2,50882.6,28103.1,155135.9,78097.0,17561.8,68923.3,141482.2,177353.7,25331.5,36950.7,0.0,397473.7,
441,0.257,28479.6,43337.3,44303.5,32847.8,45242.0,54066.3,49045.1,22059.0,41058.9,34948.1,26320.0,165354.6,63080.0,13099.3,124993.0,132222.6,161188.3,32074.5,29365.4,0.0,377952.4,
442,0.267,22821.9,38374.1,41117.4,35745.2,39241.8,52313.0,46643.7,19393.8,34486.4,29467.1,51494.0,173061.4,66041.5,19185.1,125864.8,243950.1,235295.9,27444.1,23109.3,0.0,382474.8,
443,0.268,29022.3,48706.0,47455.0,32445.7,49758.7,58236.3,51737.5,19745.0,45750.9,27661.1,21774.6,88162.7,37393.5,12640.2,130614.0,101982.2,85370.8,32174.8,23176.0,0.0,442361.1,
444,0.221,10472.7,17601.4,17013.7,13884.3,16472.6,20318.8,17665.3,9735.7,16310.0,33739.7,31066.0,99382.3,31772.7,10172.5,194997.5,139533.4,101329.8,11374.1,13652.8,0.0,340212.4,
445,0.374,13201.7,14247.4,15279.3,17819.0,16001.7,17990.8,17889.4,14222.4,25052.3,50009.4,16178.4,126695.7,97678.7,12436.4,173533.7,70410.2,136301.6,27486.4,30013.1,0.0,487316.6,
446,0.324,27329.0,32001.7,36498.9,32774.8,35151.4,40025.8,36312.5,27032.8,40803.6,44363.4,28294.4,124011.9,72357.0,22807.4,125022.8,118726.0,134952.1,36986.0,36638.3,0.0,516664.0,
447,0.239,25552.1,37670.0,36906.1,25737.9,38620.9,46487.9,41573.2,33484.9,58615.9,32975.0,34283.0,179521.3,67532.4,19996.1,56754.4,187425.9,169635.5,30261.2,17758.7,0.0,417218.4,
448,0.229,16610.5,21639.5,16509.8,11239.6,24496.6,24313.4,20191.0,14865.1,25632.9,27398.8,45607.3,116819.3,51110.5,11820.7,37023.7,173664.2,124608.9,12012.0,7020.5,0.0,440074.6,
449,0.208,16435.1,19805.4,21525.1,19278.2,21289.4,25291.6,24520.4,19187.0,42064.7,28329.4,14461.3,150459.5,86080.3,11808.3,75785.5,88478.8,125048.9,27742.5,16144.1,0.0,534113.2,
450,0.336,14507.6,19845.9,15655.9,14101.0,20342.9,22615.6,18828.6,18219.6,27345.5,37055.0,19857.8,92188.1,51152.5,16747.2,52255.7,64958.6,99497.7,16675.1,22640.5,0.0,542259.4,
451,0.19,5427.2,5612.6,6606.7,7445.7,5645.5,6870.2,7094.3,5946.6,9876.1,18114.8,14925.0,25097.9,20407.4,9782.9,27419.9,16843.7,28895.7,9437.0,16592.7,0.0,568324.3,
452,0.225,14506.0,17914.8,17605.7,17455.7,19279.3,22349.8,21538.2,19784.4,31015.1,66196.4,28873.4,222466.4,120295.1,18049.0,57667.4,107286.6,192908.7,32207.3,33365.6,0.0,591362.5,
453,0.273,15595.2,20769.5,23438.9,19934.0,22673.0,28049.1,25348.4,14702.6,27635.5,21224.2,15732.1,66518.8,30371.4,10169.9,38783.5,70984.2,39695.4,23790.1,25699.9,0.0,547095.0,
454,0.211,15691.7,17581.6,16504.8,16145.1,20115.4,22372.7,21085.4,21651.5,41731.0,41867.5,16817.5,246045.6,127663.5,15258.1,40369.9,99691.5,172402.8,31212.9,25245.6,0.0,523406.5,
455,0.265,26822.4,36368.7,27342.4,24299.7,32674.4,34852.9,31704.4,23940.0,31330.7,25655.3,23329.5,72299.1,55905.0,22873.1,14983.5,24417.1,68416.0,30560.7,23310.5,0.0,517768.0,
456,0.195,10128.5,15052.9,13733.3,17893.8,13747.9,14684.3,15307.0,16952.4,20565.1,54371.3,26298.3,93407.4,65250.6,12896.8,109130.1,91116.2,142004.5,23373.5,31548.2,0.0,639622.8,
457,0.261,16652.7,14922.0,18177.5,17088.0,20391.7,21561.0,22262.9,24281.1,34346.1,23706.7,16852.7,84566.4,42696.0,18458.3,54574.5,35300.6,45706.8,25518.3,19377.4,0.0,493654.4,
458,0.333,13178.7,15584.2,17482.6,13655.8,15198.0,19317.4,19330.7,16272.3,21782.7,17820.9,12294.5,35862.4,22142.9,13096.6,27259.7,22349.2,24707.0,20616.8,21016.0,0.0,508560.9,
459,16.386,15477.5,16584.0,19929.8,14129.7,20187.5,19722.2,19321.1,14597.9,23778.4,27177.0,8011.8,35380.9,25282.8,11284.5,30508.0,23841.3,43009.1,15390.1,17657.1,0.0,556589.8,
460,0.423,13497.2,15057.2,18158.9,19539.8,15169.3,17615.8,18097.2,15002.4,14974.7,51585.7,24718.5,138047.4,70521.1,15077.3,56387.8,116909.9,150122.3,22574.8,30935.3,0.0,414807.8,
461,0.216,9188.1,12756.0,17954.4,16130.2,12973.8,18436.8,17735.4,14425.0,17822.7,19711.0,40850.3,111058.1,39475.5,14054.5,73861.0,151437.6,91742.9,15645.2,13310.3,0.0,566856.5,
462,0.306,29475.6,29393.4,35291.6,38219.0,33286.8,32059.5,37159.0,43732.3,45528.5,61179.9,44224.4,121813.4,87542.3,34696.0,70854.7,107909.8,125198.5,46093.9,45346.4,0.0,456251.5,
463,0.311,15125.7,15590.1,17539.7,19957.8,18576.8,19069.0,22182.3,20010.2,29759.8,54142.6,26153.2,199163.4,101314.1,14268.3,57607.2,90384.5,190971.5,32857.7,30738.9,0.0,500711.8,
464,0.245,23783.7,29300.9,35943.9,34448.0,34444.8,42394.3,36584.0,26574.8,50325.7,44785.9,14486.5,144839.0,75018.4,14139.8,37258.8,62333.1,133263.0,34589.4,32097.8,0.0,460377.7,
465,0.251,12312.0,14276.3,14658.9,14463.3,17272.0,17878.2,16062.1,15565.8,23848.6,30221.1,23238.9,104501.6,58308.4,11460.4,60516.3,83296.2,107072.9,19881.3,15803.5,0.0,448682.1,
466,0.397,27246.5,39876.0,42992.3,35185.7,36901.1,46117.7,42797.5,25994.1,36510.0,20366.1,14492.2,98061.7,29716.8,17865.5,35364.1,57408.8,67673.4,24534.6,22298.9,0.0,454214.8,
467,0.234,13075.2,21189.1,25111.0,18622.8,20942.4,27693.3,23416.1,8451.9,16607.8,15383.6,12887.9,120478.2,44860.2,7158.1,22018.4,67475.6,133474.6,11567.7,9874.6,0.0,517242.7,
468,0.346,8846.3,11602.0,14310.1,12422.0,13104.0,16232.4,17138.0,11846.1,23103.4,42426.9,16470.5,63489.8,33125.7,7229.5,33005.7,55913.4,95186.9,17311.5,19535.1,0.0,446885.1,
469,0.317,20148.4,28056.5,28714.3,23958.8,26173.4,32320.7,28047.0,18633.3,28649.0,25054.0,15688.6,191257.2,71728.6,12640.4,48985.1,82031.4,114818.1,24314.8,21280.9,0.0,499630.3,
470,0.224,13420.6,15030.7,22479.3,22062.6,18815.0,22731.5,23993.3,17315.3,29686.1,35023.5,11138.0,126892.2,60475.7,9699.5,25479.2,60111.0,91962.0,26951.2,20436.5,0.0,456728.0,
471,0.582,12456.7,16308.0,16364.1,13303.4,18024.7,21347.5,18330.6,15279.3,27857.4,40105.5,19969.2,129057.7,63327.3,10773.1,35654.7,107146.8,83609.4,23142.8,25932.0,0.0,463525.3,
472,0.281,22285.5,23849.6,22684.5,16061.6,20352.2,21780.7,21422.7,12720.0,20393.6,23708.3,23115.7,46379.6,28563.4,11809.1,41962.5,69746.9,65089.8,16376.9,14082.0,0.0,499600.3,
473,0.187,9833.6,15884.8,19044.6,20610.5,16445.2,25066.2,24476.4,15216.9,28021.3,29046.8,12397.1,114492.0,48384.5,10465.2,47643.7,62610.0,79902.7,22577.2,17426.6,0.0,471970.5,
474,0.244,20051.5,26418.6,28811.2,26458.9,24461.0,27624.5,27909.8,11504.5,17748.5,21192.2,21426.8,58200.6,22356.5,13512.0,40234.9,72859.0,26360.9,21001.4,30143.8,0.0,468147.8,
475,0.325,19955.7,23108.7,22636.7,25183.0,22406.1,22398.4,21709.0,22520.7,30510.3,60997.5,23160.1,224354.6,128163.3,12180.0,68471.2,127258.1,155898.3,33831.7,42604.1,0.0,452845.9,
476,0.255,18763.2,19628.5,16858.4,16437.2,16595.2,16987.4,16208.5,15056.8,18898.2,27135.3,14730.2,99919.2,61053.1,13347.7,44260.6,47575.6,91571.0,17895.8,17713.4,0.0,464194.5,
477,0.37,31131.2,45432.7,49995.4,47036.1,47113.1,53865.8,52398.4,22198.2,50561.6,27482.2,12650.4,66934.6,51431.8,10583.6,23672.7,67049.1,86938.7,43346.8,35789.4,0.0,495640.1,
478,0.446,38629.4,45477.1,48229.2,47549.3,44145.4,46661.8,46610.3,34601.6,40612.8,50155.6,43993.3,128025.6,70259.6,27816.4,58128.8,114105.8,99314.9,42477.4,37970.5,0.0,495590.0,
479,0.331,20170.3,29263.8,39612.5,36966.0,30229.9,40078.6,41886.4,24256.9,51609.0,33231.3,18242.7,109689.4,52552.0,13536.6,50423.8,47112.9,51113.1,43825.9,40080.2,0.0,474363.2,
480,0.283,14879.6,19090.3,29621.4,31918.9,18825.3,22519.9,25362.6,20686.2,25835.0,22263.7,23366.6,76091.8,38714.4,17255.9,38277.6,45608.6,45712.4,24663.0,26888.5,0.0,420117.5,
481,0.163,10096.2,16060.7,17753.7,14889.1,13362.5,20455.6,19033.7,6355.7,10626.8,13984.1,6097.3,28409.4,10483.5,5385.8,11003.2,17562.8,13387.0,12168.6,18832.7,0.0,450988.9,
482,0.162,11997.8,14487.7,19504.2,16740.8,13430.5,17323.2,17729.6,14563.8,26331.0,47241.5,21174.9,172858.2,74880.4,10131.8,41417.1,100930.8,132580.8,19276.1,28394.0,0.0,393224.4,
483,0.253,18493.9,23092.5,34818.5,30157.1,26598.9,29463.3,30958.2,16895.1,29469.4,21040.2,10508.8,95733.2,48502.7,7424.2,27924.6,58179.1,73236.9,27745.4,28577.9,0.0,410319.2,
484,0.407,8309.6,9433.2,11462.1,12962.7,9805.8,10508.1,10779.3,21443.1,21954.1,34247.4,28856.1,147998.4,80115.7,15630.3,60039.8,99877.5,104054.5,19360.2,17674.1,0.0,427696.9,
485,0.424,11805.5,14015.0,16413.7,13185.3,15760.5,19131.3,16123.0,15385.6,23949.5,62282.2,21166.3,127599.9,79290.3,7641.4,41031.3,91151.0,148847.2,20025.0,31111.6,0.0,495856.2,
486,0.252,27988.9,38188.8,52933.1,48622.4,40316.0,49551.6,51140.5,18598.6,45782.7,25943.0,15413.9,46066.4,33233.2,15809.1,26075.0,27354.5,23600.6,48546.4,44887.8,0.0,330648.6,
487,0.541,19345.3,22639.4,19666.6,17861.9,21980.3,25045.8,25134.0,22094.9,29067.5,34902.7,17912.7,73041.2,62049.5,18180.3,30216.7,25857.3,67211.7,28555.5,27554.9,0.0,326320.6,
488,0.354,18771.8,20893.9,21154.4,18064.6,21903.2,25995.9,25056.1,17464.4,30157.7,21623.9,16220.8,39353.3,22064.7,17235.9,19151.4,35640.3,36654.6,20697.1,17658.6,0.0,445223.4,
489,0.231,11311.6,24307.1,32754.8,26525.1,27710.5,40280.0,38051.6,12934.3,41640.9,20489.5,19398.3,82171.1,36830.9,9004.4,33536.1,77611.5,42387.4,30378.5,18165.4,0.0,344106.7,
490,27.527,13076.5,25702.4,20043.2,15930.5,17892.2,19772.9,16709.5,15394.4,27643.7,31470.9,22267.1,64046.2,37443.2,12495.5,24254.1,89841.2,30463.3,24613.3,23546.4,0.0,355192.5,
491,0.632,17477.9,24907.0,29379.2,28522.5,29163.7,33401.9,31363.4,26309.4,45413.9,25586.9,12711.8,30878.0,26897.3,10186.2,24338.9,35432.7,13789.0,31839.4,37394.9,0.0,356837.5,
492,0.189,12098.6,14189.5,17254.8,15043.2,14523.4,16536.4,15275.0,11577.7,14446.0,19699.0,13298.2,41072.7,20758.4,12516.3,20752.6,55446.1,26819.8,14659.1,13828.8,0.0,287296.0,
493,0.438,23654.3,27514.2,26425.4,23697.6,27749.8,29536.3,28188.1,20687.1,34628.1,28703.6,17096.5,51230.9,35244.8,16424.7,18846.1,69760.0,101208.9,26250.6,19914.5,0.0,419700.2,That was some very deep quiet flux land coming back up.
494,0.394,13068.2,13620.2,16575.0,13730.9,16165.8,18628.5,17275.1,14729.1,24298.9,27007.6,6538.8,38315.1,27645.3,7936.3,16594.0,24495.3,82277.4,14855.6,10217.0,0.0,320393.0,
495,1.145,21803.6,27931.3,27314.2,25514.5,24106.4,25046.9,24668.8,29309.6,27135.5,28392.1,31814.5,61987.7,34521.2,21163.5,32608.0,79637.3,51602.0,24521.9,23190.5,0.0,364862.9,
496,0.301,10505.2,11898.1,16429.9,13774.9,10436.3,11594.3,14402.9,10134.5,11961.2,16490.0,11283.1,14438.0,15016.0,9645.0,13597.3,12968.4,26723.6,11064.5,11766.1,0.0,366723.2,
497,0.593,15257.0,20053.2,15039.8,15650.7,15415.4,15553.5,15092.8,18668.7,20666.9,47731.7,32761.1,125157.7,69095.9,13615.5,67279.7,143250.2,135981.3,22362.5,28345.8,0.0,335566.3,
498,0.418,25849.1,29355.3,25764.9,20326.3,30399.2,29290.4,28333.2,18530.0,26409.7,30678.8,9740.0,59941.6,39958.2,10728.5,19506.4,42194.6,86377.9,24234.6,15902.5,0.0,371394.3,
499,0.362,17904.8,15348.1,19295.1,21776.9,20260.4,22583.0,25000.4,26133.1,29104.2,55532.0,32991.9,118161.6,62256.5,18577.2,40420.6,131861.5,139145.8,28147.2,32988.8,0.0,347542.3,
500,0.239,17479.2,21409.1,26024.5,24147.1,20140.3,23349.4,25206.7,13455.3,21685.4,32568.6,13693.9,88006.9,41409.4,14347.0,22503.5,39523.6,94165.8,22999.0,19696.6,0.0,293626.4,
501,0.396,15788.5,18733.2,14302.0,12078.1,18463.0,18229.3,17650.1,12949.0,21742.8,16820.7,14273.2,60211.0,26596.3,11554.8,20863.2,43029.0,33416.3,14926.9,12971.4,0.0,321710.4,
502,0.248,10371.8,14648.3,20936.5,22597.9,15383.7,20594.0,24187.6,12793.6,19272.9,21225.4,12033.9,50289.2,29341.8,9150.4,27195.2,41497.0,20338.9,23375.4,22031.2,0.0,342603.6,
503,0.407,39930.0,40645.6,35434.5,35650.1,42844.5,44435.5,40328.7,42596.8,44874.6,30239.3,38330.9,50899.8,35454.9,36474.0,62495.4,63312.2,36779.0,36028.9,30992.7,0.0,400195.2,More visuals and breath and body. 
504,0.318,7026.2,8835.2,4631.6,4091.7,7989.1,7669.8,6014.0,6046.9,7295.4,14217.2,7956.1,16382.5,15550.7,6114.7,8273.5,14227.3,28702.4,6596.9,8507.4,0.0,346177.2,
505,0.497,13931.4,15002.9,18140.6,15040.5,14827.8,16503.0,16235.6,18635.7,17310.9,31837.4,27576.0,32602.9,14569.0,14325.1,38894.0,86291.0,33222.8,14349.3,20428.2,0.0,384185.5,
506,0.345,23151.4,26529.6,23493.4,19306.5,33699.5,35351.2,30031.4,28919.5,49080.2,10140.2,20182.6,156792.6,46525.8,14253.3,45740.2,108723.9,104103.2,27615.6,11113.5,0.0,322246.0,
507,0.383,16203.7,16653.1,16210.0,17042.6,19799.7,22497.7,23066.8,18517.2,32310.5,46585.1,14742.0,160380.5,87712.8,11866.6,33616.9,64571.6,140709.2,26649.9,24588.3,0.0,379319.4,
508,0.255,8614.0,12575.1,10818.0,10202.1,9298.0,9584.6,10424.6,8236.0,13724.5,11765.7,11388.9,64679.1,15786.3,7871.3,20460.8,53695.4,26618.5,9271.3,13542.2,0.0,344797.3,
509,0.683,19188.4,21464.5,23964.9,18187.2,27405.9,32107.1,30676.6,19828.5,29671.1,28320.4,8190.0,95539.9,50873.6,12926.5,13610.6,40539.6,149474.1,21795.9,13391.8,0.0,384640.1,
510,0.364,17924.4,21482.1,23652.8,24044.6,24677.7,27918.2,28861.6,21469.8,35621.0,30594.0,9361.3,159682.3,74137.6,12923.9,38316.7,49552.0,126997.8,29181.6,23705.6,0.0,378253.8,
511,0.257,12992.2,14408.6,18172.4,16187.2,16764.3,20196.8,19867.7,19435.4,27674.0,26999.9,29764.7,144688.7,54252.8,17478.5,44510.5,97178.9,95473.8,20253.8,18450.2,0.0,366381.8,
512,0.198,12236.0,18812.2,28286.4,31277.4,20571.1,26690.3,26792.0,19446.0,32760.8,26600.2,13905.3,102160.3,56595.8,9379.6,19271.7,78394.9,76369.3,30013.2,25481.0,0.0,311569.0,
513,0.229,15372.0,18223.7,20050.8,22058.2,20513.7,23257.1,23928.1,17325.9,25816.9,28498.4,14176.9,80804.8,44229.3,12421.4,35046.6,52053.8,46371.8,25063.1,25331.9,0.0,359001.9,
514,0.218,26852.1,31021.5,33706.6,26709.7,35866.7,42663.9,38855.0,25313.6,46214.9,52624.3,18574.7,267646.5,123016.4,15892.0,60958.8,139605.7,247981.4,36510.4,25629.4,0.0,325420.1,
515,0.223,16536.8,20811.8,22621.0,21324.3,21242.4,26087.4,24050.1,16034.7,32453.7,24443.9,18762.4,228262.5,84585.8,9762.4,63238.3,124538.3,113003.6,27626.0,21738.7,0.0,301568.7,
516,0.203,13309.8,16284.4,19463.6,17633.1,20391.4,22511.9,23549.9,21664.9,32093.4,20484.7,16588.7,113474.6,50360.8,15332.6,43089.8,39030.2,71473.2,25538.6,15303.2,0.0,347986.7,
517,0.256,21597.4,25383.4,21317.8,17231.5,27558.7,27373.7,22590.9,17496.9,25895.5,47777.4,29003.4,122496.8,67917.2,15518.6,39446.5,95231.8,171404.7,17446.7,14497.6,0.0,335182.8,
518,0.163,9371.3,11623.2,14690.3,14250.4,13245.1,17873.2,18824.5,21012.4,34659.4,26777.8,14703.5,170504.3,67921.4,14243.6,47266.2,61595.0,46064.7,27882.2,22835.1,0.0,319299.2,
519,0.203,16242.6,19678.8,18938.6,18051.0,21186.3,22900.2,22270.7,24409.5,39137.1,29027.1,17923.1,108545.2,53531.9,14465.0,45784.9,57318.2,67918.1,23704.7,20900.2,0.0,347276.0,
520,0.177,8010.8,11754.6,14443.5,10914.8,10948.6,12247.4,11239.9,7320.7,9315.7,20498.0,4182.9,80747.6,35953.4,4320.5,14028.6,18423.6,65741.8,7127.3,12799.5,0.0,295538.5,
521,0.18,6305.3,6238.8,5264.7,6929.8,6796.4,7172.8,7593.3,9398.1,12817.4,19269.1,7239.2,86438.9,42715.2,8166.6,15378.7,23651.9,54441.8,13854.5,13029.8,0.0,305775.3,
522,0.256,8104.8,12895.6,19148.6,20541.8,13717.8,18240.3,20139.3,10415.9,20884.0,34585.0,17952.9,78014.9,50987.7,9469.7,42545.7,48835.9,67843.0,28951.8,26389.6,0.0,274949.0,
523,0.245,13005.5,14360.6,13179.7,14300.6,14373.8,14262.3,13794.1,11142.1,14870.4,13769.3,10611.8,40253.0,19198.3,12115.4,23802.4,21386.9,19385.5,12557.5,13053.9,0.0,288828.8,
524,0.221,30547.7,39105.1,38663.7,34803.8,40366.5,45949.1,42321.5,20082.5,37086.4,18455.0,23491.5,106480.6,30703.0,15370.6,28692.7,161500.9,92272.2,28983.9,24989.7,0.0,359138.2,
525,0.308,19759.9,26177.4,28606.6,24791.2,32030.0,34931.3,32649.4,27454.9,44290.9,31734.6,25533.9,154604.7,61353.0,20254.7,44338.1,98189.0,135229.1,33552.4,25027.9,0.0,292206.3,
526,0.205,10017.1,7780.9,12957.1,14697.5,11866.8,12115.9,14135.3,19292.8,21120.2,24127.1,21267.7,59302.6,36983.0,18357.5,30446.1,28031.9,31529.1,19328.1,20670.6,0.0,399794.8,
527,0.208,16346.7,23498.0,31244.3,36036.3,31028.9,37463.0,38592.8,26368.0,44751.9,31601.1,12532.7,44735.4,43444.3,13361.4,28960.9,14639.1,31491.0,41955.3,37403.6,0.0,300309.0,
528,0.382,17324.3,18946.5,21424.4,22625.1,21034.4,24399.8,23339.1,17899.8,22583.3,17432.2,14877.4,23775.1,21619.3,17400.4,24405.7,17509.8,23820.0,21893.2,18167.6,0.0,354348.0,
529,0.19,12585.9,13860.1,14333.0,14206.2,13725.7,14403.2,15252.8,12705.6,19605.5,22726.2,9370.0,34981.0,29196.6,8724.8,17279.5,23756.9,34057.2,18271.3,15791.2,0.0,448267.7,
530,0.237,16001.3,18630.8,21992.6,19522.1,19423.8,22275.8,22106.2,13239.7,26184.4,17954.3,16079.1,83944.9,25561.2,8022.5,22598.7,82495.8,63801.8,17707.6,16318.1,0.0,403744.6,
531,0.184,8796.3,8436.2,9444.8,8937.4,10084.5,11773.6,12066.7,13034.8,14441.8,41879.6,15690.7,102020.8,87256.5,11281.8,24824.2,56631.8,184603.2,18031.2,14784.8,0.0,381961.9,
532,1.728,17927.7,24546.7,22541.1,17921.0,22976.3,25768.8,20659.1,15628.3,21387.5,58836.9,29079.2,129247.3,81293.3,11786.1,21564.9,112051.2,271887.6,18264.9,17341.9,0.0,356857.3,A lot of strong fourth jhanic factors in the body.  Very spacious attention.
533,0.352,28745.2,37261.1,42637.2,39145.7,40491.5,50575.2,47595.2,25864.7,56635.0,52918.5,11828.4,171982.0,102127.5,14215.0,36197.5,46344.8,194381.8,50812.2,33413.8,0.0,481699.1,
534,1.154,36130.9,45750.5,42096.7,31718.9,47692.2,48316.3,39964.0,34163.9,43650.0,22857.2,12826.9,63930.2,30695.6,17236.2,11304.2,41953.4,88379.0,29621.2,18447.6,0.0,434779.1,
535,0.736,21464.6,23148.0,24738.4,20518.4,26642.0,31011.0,29750.9,25553.0,45842.5,21805.5,12921.0,157429.6,61482.0,13368.5,14235.2,51790.3,64102.9,33806.9,17323.1,0.0,440338.9,
536,0.228,10216.3,10069.6,14514.4,12333.2,10433.3,12287.4,14543.9,12408.2,21602.5,33785.8,12278.9,87033.5,50575.2,11003.7,22130.6,35150.1,72005.3,20368.2,19359.1,0.0,417329.4,
537,0.288,11931.2,15521.6,13009.2,9990.1,13927.7,15054.8,13385.5,8450.8,15032.8,13011.2,7990.1,49884.0,21351.2,8130.9,17521.0,20231.1,16900.5,15266.8,11593.8,0.0,487239.3,
538,0.662,11219.4,13045.0,11189.5,7961.2,12015.7,11960.2,11812.3,11057.3,14610.3,13812.8,10401.8,38940.5,19080.3,9102.0,15853.1,38725.1,28314.9,10442.4,9695.5,0.0,472590.7,
539,0.335,17196.0,20491.3,18194.5,16413.3,21257.3,22863.4,20229.8,14491.3,24363.3,24478.3,21620.3,136286.6,57104.9,10079.0,36013.2,103297.7,146716.5,17547.7,12793.6,0.0,432881.2,
540,0.787,25195.7,30380.4,41127.4,32306.7,33749.2,44094.5,45095.1,26258.0,49053.6,28682.3,20603.7,84107.9,39183.9,23391.8,24915.5,47565.8,46286.3,45504.8,34916.3,0.0,495497.1,
541,0.275,12346.4,14541.8,14302.7,13577.5,13799.2,14992.6,13126.6,11625.0,12523.6,9700.0,12107.8,21215.0,13258.0,14917.4,13250.0,13381.9,12590.3,19100.8,11132.7,0.0,493092.3,
542,0.224,8403.9,7120.4,15949.6,17180.9,7924.1,8449.3,11466.5,16722.6,13474.2,18380.6,13807.8,33450.0,20732.3,10784.5,24179.7,24959.4,18035.1,18539.6,23037.3,0.0,435523.5,
543,0.202,8258.1,13063.4,15031.0,13946.7,12978.7,13640.7,14187.8,13869.1,16415.3,9797.3,9257.6,17926.5,13353.2,8249.3,11643.7,12552.9,10744.5,12470.4,11268.8,0.0,424910.5,
544,0.882,22704.9,24593.5,34605.6,32566.7,28678.7,30675.0,31084.5,30392.2,35389.6,39854.4,22071.3,42049.4,41070.4,22409.8,34631.1,25402.5,36998.8,36964.0,36138.1,0.0,482408.6,Purple sequins and sparkles.  Moving pretty fast.
545,0.291,23974.0,25201.7,29682.5,29118.0,25896.4,28467.5,29513.9,28208.8,31385.1,34688.2,29556.0,45322.6,39525.4,27169.0,35728.9,32589.1,42953.7,32458.2,32497.7,0.0,372278.3,
546,1.091,6977.0,9822.0,16507.7,21690.9,9230.9,12494.6,14521.3,8231.8,9579.5,7377.0,8320.5,11646.6,12350.4,8608.6,13221.9,9411.9,9498.0,15758.1,12905.0,0.0,362304.8,
547,0.334,13118.3,13569.7,16761.6,24928.6,20104.3,19895.4,22595.8,21689.0,22769.5,32243.3,15742.8,28947.2,28605.8,8930.0,39033.3,20865.7,28518.0,33264.3,36920.2,0.0,333827.2,
548,0.423,19289.1,23063.6,23839.9,24407.8,27475.8,24610.9,28786.8,38955.2,24915.3,21349.9,17690.9,17006.3,20510.2,13944.8,18081.9,16151.0,15348.1,42745.1,24459.8,0.0,317777.1,
549,0.303,16374.9,15770.6,14530.3,14623.9,22439.9,19794.9,21372.3,18760.3,18361.4,16584.7,14604.1,21944.1,19403.6,15069.3,29266.6,17982.5,17248.8,20192.5,17309.1,0.0,343242.2,
550,0.337,19765.0,17029.7,19997.6,24866.2,17840.5,20576.7,21979.8,13349.1,21135.9,23719.9,15744.0,20569.1,23348.7,15254.2,16294.7,15471.0,24576.9,24339.8,23857.6,0.0,341219.8,
551,0.769,7617.3,6828.8,10298.4,11377.6,7773.9,8187.6,8743.2,8166.4,10166.2,16216.5,6589.4,15753.4,15097.3,6673.0,12263.8,10505.7,23261.2,11169.8,13183.0,0.0,284125.9,
552,0.461,11852.0,12623.0,13426.5,15214.4,13416.8,14973.0,15157.3,13527.3,12254.1,11349.4,15461.3,17680.5,12460.7,10316.7,32583.5,23673.8,21367.9,13856.6,10352.3,0.0,351035.0,
553,0.252,14138.8,20302.4,26417.1,29932.4,17621.4,22617.0,24412.4,14690.9,18803.4,28910.0,10881.8,18379.0,24883.8,9506.9,12520.4,20826.2,23977.5,23001.9,41954.7,0.0,381330.0,
554,0.245,11647.2,9773.9,13944.8,16158.2,12598.9,13262.1,15699.0,12234.0,14050.8,18223.7,9797.4,14558.3,13977.2,7822.6,21198.3,12085.6,14260.9,13755.4,19908.8,0.0,280076.8,
555,0.242,12836.5,14010.0,12568.6,12254.9,14878.7,14925.5,13673.4,13776.1,17236.3,17401.1,10753.5,22807.8,20612.3,12044.3,28883.0,15905.8,24088.3,15579.3,13885.9,0.0,307395.5,
556,0.311,12928.9,15213.2,19489.5,21271.3,14240.1,18083.7,19182.2,12226.4,21016.8,29865.0,16718.2,59900.6,41018.3,11894.0,14727.4,41547.6,50617.1,25659.3,22694.0,0.0,351508.7,
557,0.186,7139.7,11212.8,11932.5,8195.8,8873.0,13701.3,13094.7,7010.4,13387.5,9087.9,6262.5,26389.9,12283.2,5013.8,11977.6,9469.6,10670.1,12070.4,9662.5,0.0,329733.7,
558,0.221,8951.0,11489.5,16107.5,15107.0,15006.8,17642.7,20068.1,11745.1,27786.2,21905.2,20617.2,111219.9,49494.2,8902.0,36457.1,99797.6,41096.3,27776.3,19675.1,0.0,338636.7,
559,0.273,33949.8,40465.0,46677.0,43506.8,45015.0,51166.8,53402.9,33528.2,70888.0,51384.3,23563.3,228671.5,103935.4,21002.9,37493.1,87404.7,82504.1,61813.2,50375.1,0.0,334881.5,
560,0.365,15048.0,16869.6,16451.9,13104.7,19089.0,19696.9,17148.7,16914.7,20500.6,20626.0,9374.4,53006.0,29979.0,11702.9,19949.0,20929.5,43244.6,15037.7,15380.2,0.0,340605.9,
561,0.264,15966.5,23915.3,25168.9,26298.1,25596.5,31268.3,31149.0,22481.5,45055.7,26222.6,12001.2,142900.7,52975.5,10299.6,31715.5,45060.2,38830.6,41122.4,32931.1,0.0,419110.2,
562,0.38,29047.8,36610.7,47072.7,47902.6,36569.0,41648.0,46864.4,34250.4,52665.0,42298.3,26249.2,85206.1,55283.7,23072.2,39026.5,47390.7,52372.3,51881.3,46419.4,0.0,456131.6,
563,0.313,23033.5,28283.5,26520.0,22950.1,23779.5,26961.6,26420.3,19628.0,22117.2,23372.0,10444.1,34434.0,24323.8,12669.5,15720.1,17501.4,21483.2,26160.3,24499.5,0.0,385481.4,
564,0.329,26041.4,30975.2,24436.9,19608.3,33586.6,31821.5,25468.4,26754.4,38611.8,17846.9,24355.7,68352.7,32236.9,18640.2,35230.0,76015.8,24921.9,26274.3,21886.5,0.0,417480.4,
565,0.207,10070.8,12103.4,20240.0,24436.5,17141.2,20841.7,22084.2,15921.6,27944.9,39430.0,9769.1,42516.4,31863.5,10513.9,32171.5,20490.8,35916.0,32309.9,38068.8,0.0,440436.9,
566,0.245,18039.8,21908.4,23536.3,20400.8,28151.4,29969.2,27309.9,27765.3,44133.1,37039.9,23137.4,69117.5,47148.9,23370.8,42577.3,39295.4,68073.4,32870.5,32703.9,0.0,381771.2,
567,0.183,10614.2,11961.0,15256.7,9936.1,13493.1,15616.1,15795.3,18203.1,22219.8,16002.2,10604.1,91542.3,27613.1,11696.6,39866.4,41645.6,38866.1,14009.8,14449.9,0.0,380726.1,
568,0.382,23988.9,34807.4,25274.3,21621.6,28072.6,34476.5,29314.2,16989.8,32279.2,34659.3,26929.3,121454.2,54375.2,13200.7,39760.9,98490.1,86385.2,26323.1,25024.2,0.0,375873.7,
569,0.219,13432.9,18489.5,17943.2,17011.4,16123.3,18516.3,16887.8,12136.1,18987.3,26260.0,20562.2,79188.3,27288.6,11533.7,25647.8,78918.8,52597.0,17297.6,20236.6,0.0,423790.2,
570,0.245,11197.3,13264.1,12713.1,14572.7,16974.3,19585.0,16552.6,14519.1,23745.3,43079.8,8499.9,67140.4,47850.8,8605.6,24036.2,35693.6,119369.6,17018.0,24514.9,0.0,341216.0,
571,0.205,21274.8,23737.7,19786.3,16079.3,24933.7,25824.8,25591.0,22856.7,31943.2,30848.3,18160.2,67355.6,43113.3,17222.2,30669.7,57563.3,72947.6,22934.0,19811.1,0.0,410825.7,
572,0.225,9968.0,10784.2,10359.5,10441.5,10550.0,12078.5,10463.2,6787.4,8831.0,8974.8,8305.9,14612.7,9030.5,6213.1,7643.4,19998.2,6828.2,7896.3,13191.6,0.0,351780.3,
573,0.191,17272.1,14883.6,11920.6,10051.5,14712.6,15814.9,13088.4,10019.9,16316.5,17162.3,9770.2,17782.5,15055.1,12816.1,23952.2,11837.6,19879.3,12527.0,14398.6,0.0,323403.4,
574,0.259,18848.8,23015.4,22558.1,16738.2,24016.3,27650.9,23553.3,18615.4,30883.4,20429.9,16101.5,127893.3,52866.2,13077.7,43844.6,93180.4,135419.4,24265.9,12803.1,0.0,297578.5,
575,0.256,25904.6,26100.3,26461.3,27375.8,28346.0,31177.6,28819.8,20813.9,28783.6,22943.0,22694.3,21907.7,17923.1,18464.0,19909.6,69700.9,40502.8,27422.2,28508.1,0.0,331083.3,
576,0.228,10568.4,22640.8,34347.8,32519.0,22231.1,29684.6,32247.1,10418.6,28819.0,31519.2,8983.9,43497.8,35802.5,4096.5,16695.4,34354.5,35400.7,32282.2,33584.3,0.0,338628.3,
577,0.27,15559.6,22556.7,36461.8,36750.3,24213.6,32496.9,37068.9,21419.5,38586.9,39167.9,30374.0,59919.1,38142.9,21490.6,32096.9,102369.6,52560.0,37971.7,41749.9,0.0,296998.4,
578,0.213,12925.4,13945.9,17434.0,19170.4,14595.6,16243.5,16206.4,18517.3,20137.4,66986.8,24809.9,124572.0,68038.5,18278.7,100198.9,78219.6,164381.0,19947.9,26522.3,0.0,231833.3,
579,0.247,17948.9,25503.1,26797.2,19409.2,25483.4,31989.8,25297.1,13555.7,25361.9,29237.5,12077.1,85160.4,44856.2,8939.0,18640.8,58964.5,157317.3,14652.5,10737.9,0.0,243879.9,
580,0.206,11610.7,15077.5,17418.4,18414.0,17979.6,21903.9,18952.1,12591.7,23357.2,24505.8,19840.3,113805.4,54258.4,14779.8,45741.8,87455.9,104557.4,21085.4,18926.5,0.0,244339.4,
581,0.232,13246.6,17052.1,14307.1,12170.0,16956.9,17187.6,13280.8,18077.6,22489.1,10605.2,19489.8,24230.3,13172.7,13602.0,30083.9,27736.3,13442.7,13639.7,11796.5,0.0,249198.4,
582,0.193,8552.8,12888.7,16620.7,16897.0,12498.9,15075.2,15206.9,11726.7,15122.2,14065.4,16206.8,14028.3,16065.2,9014.1,25755.0,43219.4,14627.7,16455.5,15025.5,0.0,284104.6,
583,0.492,30623.1,30069.5,29116.9,31447.2,34283.6,38235.5,34927.7,32931.1,35628.6,43774.4,28980.1,135552.6,69537.6,25516.3,56951.3,103645.9,134487.4,32814.7,33965.5,0.0,353594.1,
584,0.232,14438.5,24039.1,39732.7,45320.7,27032.3,37401.9,37475.1,14052.4,37517.9,63857.5,12862.0,135920.5,83174.8,6949.5,22581.5,79703.9,155785.1,45255.0,48418.4,0.0,344692.1,
585,0.304,24619.2,26715.7,26937.9,23619.6,28811.6,30671.4,25497.8,26357.5,34911.0,17939.7,16883.9,57704.2,22547.9,21016.1,24400.8,45392.2,25984.9,22372.4,22418.9,0.0,285228.1,
586,0.221,17554.7,17960.6,17164.0,17634.9,21510.7,22224.6,20032.4,28260.5,32750.3,28113.8,28457.6,72300.8,43299.7,23836.3,38843.2,54356.1,59515.0,27297.2,22153.2,0.0,456736.3,
587,0.219,13908.4,14200.9,18201.1,17886.8,16378.2,16419.1,15266.7,9486.8,11671.7,11165.0,12714.7,48704.2,16203.2,9623.7,29319.1,50183.7,38831.5,12428.0,13941.2,0.0,406554.2,
588,0.258,12858.9,19624.2,21825.3,19807.8,18449.2,23808.2,23078.4,13950.2,24966.6,24621.1,12452.3,78799.2,34596.8,10992.3,29099.0,61799.2,47681.3,21608.0,28787.0,0.0,373140.3,
589,0.22,9909.0,10578.1,10393.4,7349.7,13382.9,14073.3,11206.4,12195.4,18233.3,11413.1,11378.1,38150.8,11197.6,7857.1,14965.5,38663.3,12144.7,9219.1,12841.2,0.0,427913.7,
590,0.207,10559.9,16399.5,25051.5,22758.7,18879.2,26735.0,30255.1,14052.7,32469.1,28637.4,9501.6,49195.6,44765.1,6552.8,29428.8,32751.6,39420.1,34647.3,29524.6,0.0,367471.0,
591,0.232,14200.0,24490.0,30549.0,30424.3,25288.1,35649.7,38173.8,20659.5,48495.6,45273.4,23609.3,122314.3,53282.8,11729.7,33654.1,100501.4,69378.4,40624.4,34353.1,0.0,411056.0,
592,0.341,20738.9,26120.4,23960.4,18451.9,26668.7,27439.6,23023.5,14728.1,23728.2,31061.3,15662.6,75691.0,34423.0,11762.1,44016.9,50394.8,69347.2,15570.9,18909.2,0.0,316477.6,
593,0.244,27468.4,36065.6,48472.1,43883.0,42913.3,53817.0,54530.0,32073.3,67112.8,48216.5,42562.4,238046.4,120430.1,23120.1,63074.1,125133.4,246392.1,51924.2,32824.4,0.0,341534.8,
594,0.228,15185.2,19743.4,27707.4,23775.4,24702.9,28126.3,26428.4,33739.3,53734.9,29626.0,17989.3,233599.0,95059.5,15987.9,79735.8,54431.1,99827.5,36645.2,20876.5,0.0,301243.5,
595,0.208,7698.7,7667.5,11597.5,11676.4,8855.7,11285.2,12587.4,7785.4,14119.0,27958.2,8491.0,24117.2,27837.7,5504.6,14041.7,20382.7,69587.2,13903.3,15574.7,0.0,285835.5,
596,0.223,19463.5,22654.3,35740.6,28215.2,27740.1,33993.5,36756.5,27460.8,46475.9,20712.9,17918.9,184352.7,46393.4,15694.4,50951.3,74066.9,30844.6,30051.4,23014.5,0.0,246670.1,
597,0.38,21751.2,24009.1,26108.3,25052.9,23159.8,25789.4,23722.4,21648.8,33416.5,37864.5,21427.9,89187.2,32790.0,21831.1,31600.8,25913.6,27326.7,28625.8,36470.6,0.0,243709.5,
598,0.317,12908.3,17642.1,27173.7,26980.6,19124.6,22977.9,28754.6,20415.7,20453.0,24043.5,45973.3,137591.0,43185.2,21687.3,67339.5,166701.4,106984.9,22387.4,19254.3,0.0,268024.6,
599,0.232,19945.1,26154.0,28617.1,22016.0,27851.1,30482.1,29840.1,19967.3,36584.4,47082.4,22657.5,264569.6,107542.3,11616.9,54391.6,104820.5,139066.3,31463.0,25332.4,0.0,380914.7,
600,0.239,20435.6,23327.5,31389.9,26768.8,20284.2,20741.9,20291.7,16847.5,18766.0,22241.6,32123.1,214303.1,58776.4,15821.0,52257.2,88517.7,42632.9,16414.7,15708.7,0.0,367988.9,
601,0.238,8344.6,14010.1,25287.9,23036.2,16446.5,23638.3,26449.0,13773.6,35484.6,37824.2,11660.8,248359.2,85166.1,9599.2,58590.4,70257.2,94726.1,29011.6,31288.8,0.0,263194.7,
602,0.232,8593.6,9199.6,12342.7,9473.3,12723.3,14691.2,12731.9,14586.9,23626.6,15602.6,10218.5,42249.0,18616.4,8437.4,25893.4,22821.8,19196.2,13281.0,13037.1,0.0,346007.6,
603,0.39,12517.1,15016.9,22444.1,22396.4,15663.6,19022.5,22766.5,14150.9,24276.5,35042.1,19111.2,31221.6,30520.3,14259.8,31100.5,21084.4,42659.6,23932.4,30882.7,0.0,379854.5,
604,0.211,5855.3,7777.5,10634.8,9445.5,7659.6,7901.9,7536.2,9017.6,7724.1,10446.8,17987.3,24511.8,13285.6,9680.5,19020.1,31217.0,15981.2,8580.7,9930.9,0.0,311553.9,
605,0.186,8626.1,7951.3,7768.8,8951.1,8807.3,8240.6,8955.4,15146.2,12689.7,10659.8,19452.2,51716.9,21056.7,12250.7,22283.1,29362.1,20505.8,10432.2,9177.3,0.0,324637.4,
606,0.188,8681.0,10499.3,17834.3,17581.3,11320.2,15451.4,16717.5,17745.6,20106.8,21522.7,18479.6,64047.4,26011.0,12414.2,38463.8,37880.7,31849.2,16595.2,15192.3,0.0,338556.7,
607,0.478,18151.8,23311.4,22768.8,16440.4,23971.6,26812.0,24298.7,19684.9,25850.9,11242.4,22846.7,75852.8,25317.9,15618.7,37798.3,47963.5,30296.6,16924.8,12325.7,0.0,274195.6,
608,0.255,27245.5,30105.8,26947.7,30432.6,30581.4,31775.0,29900.8,42152.4,39693.3,58350.8,26437.4,187209.0,79068.5,33294.7,71988.9,81520.6,108683.1,39861.3,48144.0,0.0,324164.6,
609,0.227,15722.5,19468.3,25416.2,22891.5,20350.3,25247.8,25022.4,19796.8,34036.4,25442.7,12868.4,154535.8,57696.7,13144.1,36097.8,47951.5,93435.6,25147.5,22798.6,0.0,289180.1,
610,0.275,12758.3,14995.1,13208.5,9239.5,12885.9,14198.8,12057.5,11683.7,15182.7,15679.1,9378.8,134562.6,56914.0,12983.5,28664.9,28245.3,58842.5,15010.9,10762.8,0.0,279066.5,
611,0.226,7176.1,9219.2,16894.7,18759.9,10491.5,15397.6,16266.8,15944.0,28440.1,24688.0,19015.9,167764.7,54954.1,9617.5,50189.9,86663.8,35354.8,24777.9,23942.2,0.0,235761.6,
612,0.216,13391.9,13439.0,14241.6,12449.5,14999.3,17764.4,16115.7,30011.5,32188.6,22349.6,31724.2,197472.8,70549.9,25897.0,72943.1,75782.8,89398.5,21852.6,16208.9,0.0,225149.0,
613,0.224,13648.8,30611.0,36453.5,32362.8,33225.1,44635.6,43394.5,17403.7,56222.5,72124.0,20941.9,206418.3,104724.9,9353.5,43522.2,60471.4,111644.0,51741.9,57554.6,0.0,150790.2,
614,0.251,10969.6,10589.2,13231.5,17022.9,13265.3,15227.1,18475.5,25104.9,42487.6,55970.2,18717.0,183205.6,114602.9,15952.9,43163.6,47358.2,137632.3,38525.4,39134.6,0.0,225693.1,
615,0.208,11749.8,17142.3,20060.3,24016.8,15966.8,19771.4,20752.0,15014.6,29207.5,74962.0,15243.4,218801.3,136891.4,12639.5,58357.2,44925.1,87735.2,43872.9,52925.0,0.0,224522.0,
616,0.198,9362.4,10639.1,16910.1,18832.7,11680.7,16408.1,21003.8,12696.5,34368.6,27503.1,5834.5,159104.0,79817.7,8712.8,25932.0,30878.6,54572.9,34645.4,24907.5,0.0,208787.9,
617,0.215,15766.8,20894.6,19082.7,18215.5,19480.4,19940.9,20223.4,24497.2,39578.5,46140.5,14128.1,192541.5,99954.3,13521.2,38079.0,50231.0,100412.6,33253.7,26354.6,0.0,256164.7,
618,0.267,23740.4,29452.1,28300.6,27944.0,32566.3,34811.6,34551.6,35816.9,55835.2,29958.1,19543.5,219242.0,74456.9,23371.1,51814.6,64761.2,63578.5,38646.0,28330.3,0.0,298892.4,
619,0.253,8628.6,15521.3,22408.8,22582.1,14429.2,19935.2,21843.0,13781.6,20060.9,30345.1,18774.6,172151.4,74728.2,10080.4,65305.5,75753.8,62744.1,25500.6,31201.4,0.0,240224.3,
620,0.226,14190.7,14079.3,18672.8,19288.8,20037.9,22618.1,23057.8,25237.9,36817.8,30648.6,23601.7,145133.3,62971.5,16339.4,57966.4,63351.9,51169.0,28628.9,28847.3,0.0,348766.8,
621,0.263,20126.8,25837.5,29521.3,28926.5,26918.5,31161.2,31143.5,24277.8,34692.9,25152.7,23762.1,97961.9,38728.9,21764.4,51960.3,48217.9,34854.6,29279.9,27556.5,0.0,338707.8,
622,0.264,9828.0,15245.1,21153.3,25725.3,15261.6,18556.7,22437.5,9596.1,24210.6,52190.1,11772.4,74477.5,49880.3,6652.1,17229.2,36848.0,48129.7,29459.0,44908.6,0.0,199737.2,
623,0.25,11580.2,16050.3,20543.6,20011.3,17431.0,21230.5,21342.4,20562.8,28280.1,30335.0,32654.3,159850.6,57978.3,20279.6,49866.6,85363.1,61205.6,27787.0,37224.2,0.0,356182.2,
624,0.322,16241.0,18327.2,29030.6,28850.6,22809.9,26755.8,31437.6,30149.2,34029.8,41930.6,27187.6,112133.1,47426.3,25556.0,34832.1,41086.1,46983.4,38909.4,47560.5,0.0,329540.0,
625,0.278,32930.5,43875.3,49792.0,51685.1,46539.7,60968.7,57518.1,40459.0,65219.1,21087.0,28108.4,95043.3,34250.2,29863.3,48529.4,51654.1,31204.5,50366.9,46624.0,0.0,215581.8,
626,0.351,9926.6,11438.2,15000.3,12441.0,11152.9,12749.4,14046.2,12014.5,17715.4,30134.2,15204.3,64961.8,51179.8,8610.3,31342.7,62732.2,104411.2,14313.5,13434.3,0.0,215584.3,
627,0.188,8886.3,10312.7,14011.2,14596.8,9602.3,11672.4,13787.4,14721.7,15258.3,44827.5,19589.5,263334.2,93451.0,13173.3,74793.9,120339.7,190736.6,17745.0,30254.0,0.0,284146.6,
628,0.26,7884.7,13569.7,20583.5,17489.1,15166.1,20267.4,21765.7,13982.9,22658.8,17504.6,13817.0,132157.1,32594.9,6454.1,45718.7,74658.9,32728.2,20209.0,17057.2,0.0,321672.7,
629,0.202,6110.8,8145.1,8954.2,7965.2,7919.1,10170.1,8138.2,9614.7,17572.7,6140.8,12686.7,123150.5,22762.8,8701.2,43173.8,49768.9,22408.7,7034.7,7118.9,0.0,270192.5,
630,0.287,16744.2,18150.6,16604.4,12679.2,18477.8,19865.6,16536.1,14544.4,21152.7,11149.4,29400.5,48594.1,18603.2,17233.4,34054.7,45127.2,19483.6,14741.8,12018.8,0.0,246940.2,
631,0.179,10883.9,11247.5,9700.4,11476.6,9917.0,10652.8,10933.3,16256.0,15726.7,10081.4,21600.8,68427.7,21614.9,14394.6,48213.1,57855.0,15760.7,11416.2,9183.7,0.0,286117.9,
632,0.214,9169.7,11781.9,16237.7,14431.2,9709.1,12314.3,12475.5,8493.6,11382.1,14818.2,16405.0,104585.7,26664.6,7224.5,47271.8,75956.3,50904.6,11665.5,13533.2,0.0,196505.8,
633,0.445,31262.0,48562.2,52650.9,47032.7,47513.2,55472.6,53453.3,33308.9,54682.0,33132.4,30488.1,176676.3,55312.3,26483.7,54591.3,129971.0,129342.2,39483.8,30655.2,0.0,247210.0,
634,0.811,14302.5,15912.2,14860.3,11899.0,18724.0,19181.5,18585.7,20226.6,25956.1,58474.4,13730.4,159142.3,82521.4,11810.8,49503.4,107770.8,228606.2,19271.0,13375.8,0.0,209224.1,
635,1.867,29026.7,52094.2,43163.4,33150.6,41880.2,48340.0,43142.6,29671.7,49991.9,24698.6,16112.7,99385.0,39770.8,20551.1,39870.7,39742.5,32694.7,36808.0,26084.2,0.0,180588.6,
636,0.302,22386.4,32688.1,29708.2,21811.5,28341.0,29177.8,27924.5,33241.3,40224.4,29042.0,29524.9,121644.8,40299.6,21523.7,71858.4,109358.2,45532.6,32193.7,28290.9,0.0,255126.6,
637,0.225,17790.2,29064.8,26850.8,21736.7,31450.2,35119.1,30211.2,31870.3,58228.3,31754.6,15372.1,318628.6,107032.8,15664.3,58743.8,119113.4,104005.6,38432.1,29778.6,0.0,181914.3,
638,0.198,10664.3,15907.5,11650.8,8790.5,18246.5,19993.5,18150.2,16091.5,43769.2,24333.4,9841.8,159632.9,60902.3,8720.1,42334.0,53010.0,42955.5,20237.5,18288.8,0.0,153256.4,
639,0.233,13444.8,17599.4,29560.8,34262.0,23549.7,32709.3,37770.1,19500.6,51698.7,32725.8,15773.1,182415.0,79158.6,13341.4,75667.5,63342.1,67818.0,44985.1,37625.6,0.0,169580.2,
640,0.249,13629.5,20980.0,18069.1,10747.0,15596.7,17594.3,15281.0,9849.0,18506.5,11348.2,9608.1,71502.4,26617.8,11133.2,16121.7,25408.3,35170.7,11818.4,9098.4,0.0,174663.5,
641,0.352,17828.7,15069.4,19295.8,17266.2,17874.3,18260.4,19202.3,21617.6,19411.2,22495.0,24480.6,61143.6,31242.9,22994.7,41144.7,34893.7,28074.5,18869.1,18949.0,0.0,155543.1,
642,0.315,21094.5,25223.0,25156.8,17352.4,26324.9,30115.7,26227.2,21771.4,26805.7,24018.1,14986.7,103571.7,41317.4,17513.4,31152.7,49707.6,70395.5,23015.3,17629.8,0.0,193479.7,
643,0.191,8692.4,12385.3,15153.8,13560.6,14135.6,17228.6,17781.0,10826.3,25456.8,17324.2,6102.5,38161.2,30259.4,7045.0,13733.4,8367.9,28092.4,23884.7,15039.1,0.0,210623.6,
644,0.316,20712.9,22074.1,17304.2,16401.4,22650.1,22603.4,21148.1,24529.0,25723.5,19449.2,16561.0,23735.0,19430.9,20607.6,28853.9,18415.8,15924.0,21173.2,29194.9,0.0,171024.1,
645,0.363,22657.0,31511.7,36401.9,33089.3,36040.0,40608.7,41141.1,26150.9,49743.9,34325.8,18937.6,99139.8,34961.8,14433.7,38730.6,62540.2,84868.0,33862.3,29559.2,0.0,205755.0,
646,0.279,24458.3,36824.1,43927.8,40155.4,34825.1,40711.2,43331.0,36542.8,52016.5,32437.9,48826.7,250829.5,91221.8,24821.5,71440.8,156494.5,93824.4,53012.3,43121.4,0.0,228171.1,
647,0.305,16710.8,25306.7,30761.8,24996.6,23494.5,29311.1,29093.5,16781.9,37923.5,64189.7,16495.9,200773.5,99999.6,7748.0,41873.4,76383.0,131016.6,33159.2,27863.4,0.0,243319.8,
648,0.2,11213.0,10807.2,12316.5,13554.1,14499.4,14603.8,15796.1,14732.1,23667.3,38303.4,19683.6,125174.3,63697.1,11468.3,34316.6,33239.5,65027.6,23360.0,23676.2,0.0,211602.5,
649,0.251,7944.4,11376.0,14665.0,16067.8,10564.8,13831.0,15381.1,10706.2,19547.3,22947.4,15395.3,90507.3,45544.5,9723.3,24444.0,26403.1,53152.9,20012.9,17590.2,0.0,258208.0,
650,0.417,19938.2,21705.7,23895.8,21737.8,20607.0,24624.9,23137.5,20019.3,16623.4,12132.2,16313.8,89780.7,24757.5,21539.3,28649.6,37393.1,31955.5,14297.6,17541.1,0.0,162802.3,
651,0.278,14112.2,14216.2,15292.2,11766.2,15249.5,14666.3,13891.5,14694.5,28313.9,31275.2,10056.8,176545.3,77890.6,9134.2,34275.7,39331.9,89569.3,21724.2,16544.2,0.0,197311.6,
652,0.258,11518.3,13809.4,18608.9,20722.3,13272.3,17265.8,19217.9,12104.9,19886.7,36059.0,8901.6,37249.1,32792.6,13195.9,15974.9,12791.0,36120.5,24553.8,39761.8,0.0,203690.4,
653,0.329,19378.5,18530.4,15476.2,11777.4,16036.8,15308.4,13627.4,19300.0,17204.9,14285.0,23468.0,48583.8,17154.7,18716.1,34802.4,79218.7,30049.8,11162.8,11694.1,0.0,167756.8,
654,0.239,10510.7,16716.6,20727.2,18403.0,16008.1,18742.4,21450.9,12961.7,22629.4,25921.7,5053.5,35615.8,28454.4,5872.5,18140.1,16740.7,33273.6,20140.1,24676.3,0.0,191766.8,
655,0.206,5536.7,8180.1,12125.5,9026.7,9074.0,10195.9,10145.1,14528.9,18175.5,21440.2,23266.9,155726.0,58839.0,12096.3,52748.0,95247.1,90250.3,14121.6,10825.6,0.0,248238.9,
656,0.25,13104.7,15613.1,21696.2,19760.2,17711.6,20685.5,22607.0,20795.5,27391.7,21102.0,19863.1,81176.5,40049.6,17298.7,53216.1,51360.4,45305.1,24125.1,20434.6,0.0,225271.9,
657,0.251,18147.5,17646.0,15908.6,14506.9,19143.9,19523.9,16648.6,18567.7,19079.7,40803.8,33977.6,99698.8,54213.4,19689.2,46109.0,119235.4,183635.5,16807.9,14428.9,0.0,223380.9,
658,0.204,12273.2,13823.2,19950.0,16518.9,14773.9,15867.7,16667.0,14450.0,22005.2,28007.1,9506.1,27570.0,25697.2,12843.6,27349.6,15532.1,37166.2,19259.5,21816.1,0.0,149644.5,
659,0.193,6706.3,9973.2,14240.5,13872.7,9303.6,12564.3,14949.3,5809.8,12265.1,11739.1,14206.5,28304.2,14435.5,6189.6,9759.5,53034.4,22851.3,13966.6,14542.1,0.0,216918.8,
660,0.222,13523.6,19980.0,19725.1,17551.3,19822.6,22271.5,19492.0,14022.5,20956.8,18994.9,25323.8,89693.2,21731.7,18415.6,36128.1,116017.3,36588.0,17931.0,21197.5,0.0,198087.0,
661,0.218,14003.9,17193.0,19885.8,19359.2,14931.4,16729.4,17829.6,11205.2,13520.9,44274.6,17549.3,40441.1,30662.7,9997.3,37526.3,66853.1,49318.0,20676.9,41020.8,0.0,232527.1,
662,0.265,19351.5,24793.7,24741.9,19445.5,23026.1,25032.3,23603.2,16923.5,22002.8,42071.3,30121.1,117840.1,57668.6,20609.3,45657.2,138115.6,183798.8,19379.0,14857.9,0.0,206002.6,
663,0.278,18058.5,25803.1,34546.0,36984.8,30963.3,38349.1,39949.2,26969.7,51385.2,70507.2,22343.5,181765.0,94574.1,18080.1,41162.7,111392.4,174268.9,49983.8,66538.4,0.0,188094.6,
664,0.254,22255.2,29308.3,34084.1,34865.9,29421.1,35828.8,39903.0,19425.9,33610.4,17964.8,12531.2,100101.6,40387.5,12227.7,26015.8,72772.7,57547.1,33672.6,30756.6,0.0,183582.5,
665,0.25,13091.9,18770.3,21657.1,14413.9,14572.8,18783.7,17800.4,6427.4,13631.3,18248.7,14399.9,70318.1,20780.8,6432.8,27236.3,98161.4,50350.3,11155.7,13579.0,0.0,203354.4,
666,0.184,7073.6,14209.6,19102.8,21886.8,11999.4,17287.0,19286.6,7697.2,16757.7,30894.2,14971.0,60618.9,22509.5,7289.9,34230.3,69557.6,13724.8,20846.7,29251.2,0.0,161258.0,
667,0.39,23591.1,26291.3,28807.3,30981.8,27572.4,30888.0,32172.7,28118.3,39134.4,27679.5,12268.5,76504.8,39744.2,21684.8,37716.1,31269.8,26777.6,36530.3,34377.7,0.0,185726.3,
668,0.212,8912.3,14452.7,17969.9,14082.9,14474.7,19083.4,18303.9,11418.8,23387.0,39853.3,17796.0,142014.0,70668.6,6959.5,31966.4,100125.0,173347.6,18142.1,16297.3,0.0,181913.6,
669,0.299,51171.5,54229.4,59731.0,56499.3,61764.1,66852.2,60468.0,53391.9,54742.1,43533.1,49154.1,122088.3,48067.1,49487.2,80737.7,142520.1,123361.0,48614.2,51188.4,0.0,165465.5,
670,0.246,20668.1,29305.1,30128.4,27829.8,27334.4,31505.1,32919.8,24327.3,37909.6,55100.5,30013.6,194482.7,83678.7,15170.7,90677.1,145038.4,199089.7,31968.4,33726.8,0.0,131976.1,Touch of fear in the body against a much broader sort of tranquil jhanic background.
671,1.344,21596.3,25713.3,33343.3,36600.6,25499.9,30487.1,32287.7,23589.3,37936.0,47710.3,35950.6,170247.8,88243.7,20969.3,60139.8,95208.5,157389.9,38374.9,35235.7,0.0,200962.8,
672,0.421,21844.4,25127.9,28470.6,24346.4,29321.2,33527.0,31006.0,20486.0,32506.0,26424.9,22098.1,75713.2,38888.7,14538.6,44273.2,132095.8,134972.7,26610.2,18564.6,0.0,170216.0,
673,0.412,24355.1,30196.5,35006.8,31985.2,26261.8,28049.0,28625.5,19164.2,25136.6,69337.9,18303.8,156183.0,97857.0,17115.9,26079.2,85057.3,208023.4,29131.5,31520.5,0.0,190381.3,
674,0.434,10775.3,15816.1,19607.0,19523.3,14416.9,18274.8,19743.5,10875.2,26032.3,44224.3,22013.1,99596.2,71122.7,8530.9,44016.8,121490.7,153237.0,26569.5,21515.2,0.0,195140.7,
675,0.649,29579.3,37550.2,41094.3,37069.6,38067.8,42888.5,45170.4,30636.6,47702.5,61962.1,23446.9,184754.3,107172.0,27774.7,82936.8,96745.9,233389.4,45196.3,36875.5,0.0,221630.2,
676,0.412,17545.9,21218.6,18573.2,16284.2,22465.0,23483.6,23973.2,19306.9,32575.6,12507.8,10958.9,53679.4,23405.9,11169.4,19128.2,58567.9,59978.7,22064.5,13582.8,0.0,142594.4,
677,0.417,9196.8,11561.3,10519.9,10972.8,10803.3,10868.0,11910.9,13424.2,19039.6,16538.7,29259.9,66806.6,20949.9,12062.5,42407.8,116123.1,36304.3,14569.9,13205.4,0.0,134647.6,
678,0.226,15314.3,23702.0,28068.8,28888.1,22059.2,28388.5,27639.9,12987.7,26131.8,15461.3,17635.7,63943.8,20545.0,9913.4,29873.0,82789.3,38327.5,19625.6,17503.9,0.0,161102.8,
679,0.192,10576.5,9715.9,8891.0,8323.1,10228.9,9515.7,8500.3,10314.3,9910.3,28811.3,11965.4,13997.9,21516.4,9763.8,8658.9,18520.4,79572.7,8002.6,14730.1,0.0,172434.2,
