Time (s),Var Fp1,F7,Fp1,Fp2,F8,F3,Fz,F4,C3,Cz,P8,P7,Pz,P4,T3,P3,O1,O2,C4,T4,A2,ExG 1,notes
1,0.382,13161.8,18568.2,21055.2,21120.1,15718.9,17281.6,17783.8,14743.0,17074.7,25102.4,13653.1,19420.2,18472.5,11655.0,15862.7,16202.5,24631.8,16122.5,18802.2,0.0,119612024.2,
2,0.733,15440.9,17059.8,18978.1,15900.2,15038.0,17292.3,17088.9,16037.4,14784.3,16724.2,12467.0,13683.1,11809.8,12899.4,13556.0,14033.8,13579.5,13710.7,15758.6,0.0,100654270.1,
3,0.487,13872.9,18625.8,21215.7,21116.0,18340.0,20252.7,21418.3,18503.3,21127.2,17780.1,18171.9,28207.1,20106.5,12120.0,21346.7,22511.7,25134.3,20924.4,20717.2,0.0,89773441.1,
4,0.334,17985.5,19467.9,27381.4,29210.0,22127.3,24214.3,26426.0,19998.4,28382.5,32097.8,28202.8,28853.1,29645.6,21134.1,23685.2,25737.0,33703.9,29244.3,33628.2,0.0,67524506.8,
5,0.291,11518.7,14411.9,16540.2,13879.2,13869.8,16809.7,17008.8,12578.7,15686.4,21418.3,18065.5,11916.8,14661.5,15574.4,9626.9,11162.4,18645.9,17268.5,18261.8,0.0,66664294.4,
6,0.368,9190.0,20908.4,18378.2,14545.2,11107.0,12620.6,13385.8,8712.9,12269.8,15704.8,10188.8,20335.4,16039.6,10742.0,8854.7,12294.0,26614.1,18457.1,19557.5,0.0,187390720.2,
7,0.586,6873.1,5076.4,4165.0,4711.2,5392.6,5198.6,3781.3,7882.9,4812.3,4054.0,11467.9,7085.9,3566.7,8494.3,7888.8,9907.2,9211.3,3422.2,4879.8,0.0,123732535.8,
8,0.755,10145.5,12100.7,11125.3,12627.4,12960.5,14842.9,15052.9,9459.3,17076.3,18040.9,10436.7,16377.5,16332.4,10459.9,8594.9,6993.8,17559.2,19242.0,15637.5,0.0,535459190.1,
9,0.892,11723.1,15849.9,22657.3,22347.7,14624.5,15993.7,17481.9,13247.6,15526.4,15560.5,19833.8,18119.6,17733.1,14009.2,13984.1,30823.2,24529.7,16459.1,15896.4,0.0,248687430.0,
10,2.589,8255.1,46934.8,71622.6,25232.4,13287.7,18036.8,23209.6,6985.6,8973.4,10985.7,10475.0,13082.6,11463.9,7266.7,7547.8,13930.8,20325.2,13614.6,16589.5,0.0,306312947.5,
11,2.465,22292.2,17296.6,25324.8,30147.0,21056.1,20099.4,20736.9,37060.1,22064.3,31595.0,27778.1,30331.3,31510.4,21596.4,23720.1,37767.9,39321.6,28734.2,32560.8,0.0,549560034.1,
12,0.575,15530.3,20167.5,18512.3,17696.3,21049.5,18680.5,24625.1,19230.3,23225.9,21010.1,13119.5,22687.4,24194.1,14353.1,18205.3,15795.4,21922.4,24655.9,19716.6,0.0,431130900.1,
13,0.446,18251.5,20071.8,21802.6,20644.5,21310.1,21588.7,24006.9,19962.5,25330.2,22906.1,15487.5,22423.9,18951.2,17157.1,18340.5,24324.7,26678.6,22392.6,22153.8,0.0,1160985814.7,
14,0.232,10155.6,15995.1,19027.1,15828.5,15515.4,16781.6,18790.7,10194.7,14079.9,15907.6,8339.7,12583.7,16209.0,8374.4,6485.1,9741.9,11109.3,17180.4,19755.7,0.0,237807009.6,
15,0.419,10374.2,15593.9,20090.6,17659.6,14617.0,17350.8,18431.2,13732.5,20163.2,16289.4,12940.0,21755.5,19118.6,11243.1,14395.5,20907.7,23923.7,19317.7,16946.3,0.0,2101960.5,
16,0.255,15885.1,21784.2,23980.0,23001.4,22451.3,25586.5,27278.6,20570.0,27235.5,17992.6,18434.6,22462.9,17933.7,13784.3,20213.7,28861.3,22310.8,24422.5,23104.3,0.0,5617050.1,
17,0.177,7311.6,6887.1,10308.9,11700.4,8209.8,9458.4,10151.1,9431.6,14706.9,24333.4,12053.8,28062.7,22760.5,8414.5,14023.4,20288.3,24621.0,15472.5,23534.9,0.0,27119398.6,
18,0.168,8463.5,11816.3,12125.9,15646.1,11054.2,11620.7,13781.2,14372.8,13949.0,17404.9,14280.4,11992.8,13522.7,11807.0,19611.8,22407.5,15119.4,13003.7,16037.1,0.0,403833.1,
19,0.176,11008.1,14203.9,16388.8,17638.5,17387.9,18986.4,20256.2,14442.2,20738.7,21816.4,14751.3,18898.7,21013.7,14062.5,17820.2,24090.6,28041.1,21322.0,22040.9,0.0,253053.0,
20,0.219,14229.1,17663.2,13200.1,11417.6,16592.8,16072.5,13375.2,12135.9,14946.5,13872.7,5810.9,19383.5,11419.8,7155.3,11621.6,17577.7,22235.0,8735.8,14038.5,0.0,420261.7,
21,0.199,13664.9,14801.1,12554.0,11726.8,14428.1,14764.0,11993.5,13312.4,15938.6,12747.8,10913.5,13791.5,15167.1,10576.8,11311.6,18450.9,17686.4,13558.2,12767.4,0.0,406948.7,
22,0.195,7026.1,12224.9,13002.3,10574.6,14593.2,16207.7,14734.5,14891.4,20608.3,15964.2,16574.3,20995.9,15717.3,12939.8,21726.1,18847.5,15440.6,16147.9,14369.9,0.0,332887.3,
23,0.186,10211.3,12329.3,11251.9,11413.2,13777.5,15689.3,13951.0,9617.3,13352.5,17687.8,15897.6,23028.5,14389.8,6679.0,19419.0,41882.4,18656.7,9733.1,15905.8,0.0,334931.7,
24,0.252,12017.9,15273.9,18216.6,25494.7,14318.1,16373.4,20071.5,12383.2,15476.8,37870.7,11849.0,57902.8,50722.6,11368.9,17889.0,32451.8,50181.2,33392.8,30965.3,0.0,321840.5,
25,0.196,8991.2,9932.8,6617.9,9343.8,7849.8,6947.1,7468.6,7605.5,6432.3,13954.1,8844.5,18879.4,13847.3,7623.0,11259.7,23703.5,14635.6,9872.6,16222.1,0.0,290148.5,
26,0.39,15512.3,24112.1,19997.4,16210.7,25478.5,24571.0,23273.7,18003.2,27308.2,20459.6,14692.6,28527.3,28549.7,13090.1,19347.1,20877.5,21151.6,23393.1,18310.0,0.0,392985.7,
27,0.214,9539.6,13368.4,16671.6,17160.4,14054.3,16940.8,17438.0,12222.0,17160.1,16168.0,10655.5,23096.9,18527.9,9573.8,16025.9,20889.8,23376.8,16286.3,16633.9,0.0,421082.6,
28,0.215,9761.5,12532.5,13370.7,18775.1,10246.4,10955.1,12424.3,12705.1,14494.7,27229.4,12186.6,39550.2,26381.2,11271.4,17779.4,22963.2,39830.1,16546.1,27258.3,0.0,299222.4,
29,0.183,6973.8,6020.5,6269.0,8651.2,8320.2,8120.8,8300.7,7548.4,10294.5,13341.3,7726.0,31471.9,23273.7,7269.9,9853.9,13420.6,32621.1,11889.2,8660.7,0.0,263062.3,
30,0.174,17947.6,18917.1,21665.3,20585.9,22166.0,24356.2,23869.3,21428.1,32499.1,36508.5,17489.9,63433.3,57553.7,16315.1,26550.0,29412.4,76577.9,29114.4,24909.3,0.0,406456.0,
31,0.205,28344.7,32361.3,37420.9,40223.5,36376.7,39959.0,44536.1,30262.2,48914.5,40903.9,23918.3,32661.6,39975.1,22953.8,24203.5,19477.9,39888.6,42001.2,46124.4,0.0,308985.4,
32,0.158,15874.3,14494.7,17520.3,17609.8,18824.1,17285.8,19185.9,15849.0,21557.9,15925.6,10087.8,15439.5,19008.4,13438.0,11647.8,10438.7,14873.0,21792.9,19362.5,0.0,336565.8,
33,0.225,15640.2,18346.9,22285.9,24418.7,17603.3,20662.8,21531.3,14722.8,20824.5,31063.4,13072.8,23972.3,25409.7,12420.6,17339.2,15909.7,25772.2,22562.6,29907.0,0.0,413361.2,
34,0.204,11413.7,14699.7,17135.6,16231.8,14494.9,18042.5,17722.6,9770.4,19220.4,19583.6,5604.3,12410.9,18492.6,8433.9,7403.1,7059.4,15675.7,16679.6,16655.5,0.0,649838.6,
35,0.157,8065.1,12611.7,19223.4,18199.0,14654.5,17342.9,19542.1,14664.2,25013.4,40909.4,14927.6,37690.9,41357.2,11586.4,23280.2,21212.0,36658.0,26576.1,32724.9,0.0,427544.9,
36,0.342,9597.9,7981.4,7580.4,6999.4,8228.7,6744.2,6892.2,8116.0,11157.6,9526.8,6364.5,18314.8,10209.7,6867.1,11006.6,26945.4,21400.9,8350.5,8822.3,0.0,9028121.6,
37,0.525,9284.2,9711.5,8770.2,9444.5,9214.9,10729.9,9719.7,10316.3,13264.2,13164.7,12674.3,18976.2,16143.2,10835.3,11436.1,15311.3,23806.2,14003.2,12407.9,0.0,438995574.9,
38,0.246,7965.6,8888.7,8344.0,7642.4,10226.8,10756.4,9410.0,11677.0,12559.0,14893.1,15509.2,21464.5,13781.4,10936.6,15964.7,29743.4,33176.8,10835.2,10146.4,0.0,120467862.7,
39,0.574,8437.0,11573.2,15348.1,14873.8,10376.1,9901.0,11672.7,8620.0,10273.4,14204.0,8237.9,11131.5,12128.5,6192.5,7333.7,9188.7,16664.7,12976.3,21254.2,0.0,81525548.6,
40,0.289,21904.3,28632.3,32393.8,32045.8,25916.2,28113.0,30436.4,21499.1,28541.0,32668.7,15177.1,23045.6,26897.4,16562.4,19567.9,25139.2,31296.3,28790.5,32764.7,0.0,2193261975.2,
41,0.295,8658.9,9652.6,12085.2,10204.8,10131.1,12316.1,10481.8,9133.7,14347.7,9782.0,10541.3,11200.3,9290.3,7007.8,10238.8,26162.7,11478.5,10882.0,13470.2,0.0,57912334.0,
42,0.304,12062.4,14084.2,17392.3,17747.1,14978.2,18105.8,19489.9,12627.3,22251.4,17425.0,10492.1,14576.5,18739.0,9724.5,15099.7,13541.1,16562.6,18286.6,20052.1,0.0,162559275.0,
43,0.179,18138.1,16289.9,18686.6,17565.9,18362.2,21288.6,22598.9,13959.2,17634.4,22024.1,13185.0,11614.0,16218.6,14144.2,9197.6,20004.7,18115.5,17434.8,19287.3,0.0,1992726.3,
44,0.236,7584.3,8509.2,10796.3,12381.1,10634.8,13790.4,11976.5,10720.4,16447.4,15173.1,10018.3,21607.2,17755.6,9622.7,15055.7,20474.8,14185.0,17186.0,14967.5,0.0,657278.0,
45,0.197,7579.5,10069.4,10528.3,12144.9,10877.8,13605.7,13878.4,12827.6,27820.6,22122.1,14832.9,50374.3,36159.2,9819.3,22048.2,22584.7,33188.3,22281.9,19510.1,0.0,510215.5,
46,0.193,12520.2,22066.8,24145.7,23491.5,19781.5,25122.6,24739.5,17137.9,17080.6,34167.3,26860.8,59130.7,30276.9,21397.9,36810.4,43419.0,33854.9,19979.9,32823.1,0.0,583855.2,
47,0.229,15386.9,20540.6,23124.1,25922.6,21838.9,25804.3,28603.8,16261.3,28832.7,28566.1,11516.2,49425.5,39583.5,10572.8,20401.0,31945.5,54315.8,28686.9,28327.4,0.0,548157.3,
48,0.209,14506.7,18267.0,20985.9,20203.6,20847.7,26449.8,23106.0,20425.1,31927.3,20078.1,17470.6,47447.4,26502.3,12021.1,25182.6,36045.7,29795.7,25720.6,25411.0,0.0,487576.9,
49,0.195,11966.9,16988.1,21382.1,21498.5,17623.7,22400.9,23279.2,12232.3,28292.3,15094.3,12310.3,35913.9,17791.2,12737.1,14098.3,16831.0,19852.8,20690.6,16941.4,0.0,408476.9,
50,0.201,12905.8,19282.1,28434.1,37545.6,19169.4,26362.4,33028.7,15913.3,28872.7,38461.3,16307.5,70587.8,42503.5,11343.6,24434.2,24049.2,41039.9,41893.1,42665.1,0.0,598310.5,
51,0.16,6403.8,5695.6,6399.9,4672.0,6424.3,7046.1,7348.7,8348.2,10242.4,9431.7,13747.3,15181.4,10977.0,9841.2,12241.4,19989.2,8447.1,8333.2,8793.6,0.0,496218.7,
52,0.195,11742.9,11702.8,12207.2,13611.4,14281.9,15059.2,13573.3,17593.0,16487.7,16001.2,10793.2,27139.9,22199.6,10958.5,16743.6,19201.3,31961.5,17916.5,15390.1,0.0,469266.2,
53,0.161,8202.4,10982.6,15034.2,19521.5,11661.7,16037.7,15690.6,13273.3,17498.2,26177.5,11961.9,20311.9,22987.6,10557.4,12159.3,15018.2,17527.8,21609.1,29201.5,0.0,613621.7,
54,0.172,11313.0,13132.4,12514.9,14450.5,14070.1,15487.8,15322.2,14286.9,16057.3,15194.0,13227.1,13502.9,17352.8,11846.3,15664.5,14749.8,12483.5,19478.3,15986.5,0.0,557160.2,
55,0.222,29347.9,26942.3,25762.1,28329.1,33850.8,33338.4,32250.0,45098.4,45830.9,41068.6,42973.0,87628.9,48740.6,31027.7,62253.5,72074.8,63622.4,37383.1,36571.0,0.0,692393.8,
56,0.308,14386.2,16674.7,21002.1,20784.4,17742.4,18028.4,22224.9,16240.1,23869.6,23583.5,18231.2,39687.0,26090.0,14820.6,23278.3,29481.2,30866.8,20573.7,21871.9,0.0,550604.6,
57,0.174,14444.8,22100.6,20117.3,16779.8,21292.9,22211.3,18975.1,11320.7,15045.6,14409.4,27539.9,112284.9,29056.3,9327.8,43580.0,139157.6,86577.6,15106.4,16127.2,0.0,522781.6,
58,0.202,8776.0,11952.9,11906.4,13136.6,10062.9,11923.9,13176.7,7191.4,16673.9,19310.9,13345.2,125620.9,49902.0,6565.1,31073.8,82575.9,71918.7,20771.5,13901.0,0.0,540507.7,
59,0.186,12158.3,13634.5,11739.0,11611.7,12975.2,13688.0,12686.1,14804.3,15806.1,15844.0,11837.0,33178.0,23164.2,13525.6,11468.0,12422.3,32984.7,16800.4,15000.6,0.0,588190.9,
60,0.189,8721.4,10293.4,13113.6,15002.4,12238.5,13637.6,14662.8,13286.6,19843.2,27848.4,7176.7,46083.2,36982.5,9112.9,11285.5,14984.9,43205.8,23960.4,25481.0,0.0,522701.8,
61,0.157,6316.0,6091.4,9744.9,10196.1,7939.8,7428.2,9030.9,6348.4,8401.4,9703.3,9692.1,8494.7,9648.9,8153.8,7881.8,11876.5,10496.9,9532.0,13606.5,0.0,584950.0,
62,0.243,8318.9,9771.8,12804.0,14393.3,10734.8,13777.1,15195.8,10216.3,14233.5,14009.8,9186.7,10505.6,17256.4,9520.7,10549.8,9513.7,12305.7,17033.2,17764.5,0.0,633561.0,
63,0.253,9972.4,11010.5,10939.7,13479.5,13290.0,13292.5,13738.1,12978.4,14401.8,16786.5,11843.5,11693.5,18759.1,9990.4,10907.6,9483.0,12055.4,14923.7,19607.2,0.0,656355.5,
64,0.224,12662.1,12048.6,12012.4,12201.8,12268.9,12849.9,12521.3,14153.7,16690.3,14212.3,15193.9,11704.6,11474.8,12681.1,13912.3,13845.2,11048.5,10526.4,14582.2,0.0,819341.2,
65,0.293,11239.5,14207.6,13842.4,14146.1,12704.9,15235.7,15100.2,10574.9,16314.8,15001.8,5930.8,9001.5,15890.6,8371.1,7512.0,9018.6,16499.9,14348.0,15364.2,0.0,310740.4,Background getting somewhat more purple.
66,0.348,15117.6,22895.4,29722.9,31447.5,21332.7,21782.9,24534.0,17977.8,18276.9,20662.4,14721.1,18616.5,21532.6,14570.9,18941.1,24985.1,20472.7,25416.3,30226.5,0.0,958962.9,
67,0.196,8971.1,10834.8,12424.6,12664.3,11121.8,12641.3,12686.3,10368.3,14308.5,12367.9,12142.8,19551.4,16743.5,9910.3,15149.9,26068.9,24175.6,15663.5,14364.2,0.0,528691.2,
68,0.241,26334.5,27055.3,20404.5,18372.2,28062.4,26267.9,22470.0,31516.7,27261.8,20165.0,28049.6,30108.1,23235.2,24330.2,28845.5,31596.9,31749.0,21159.4,20218.5,0.0,561834.4,
69,0.211,10048.6,12133.7,15091.0,16822.8,13715.1,14508.9,14572.3,16685.6,20867.3,17346.2,7307.8,26459.9,21295.7,7653.2,14821.1,17989.4,16233.8,20074.5,17601.0,0.0,628698.6,
70,0.169,5678.0,5108.5,4175.8,4567.3,5282.0,4962.2,4131.2,7189.1,6027.4,11954.5,8415.7,10879.5,6667.5,8135.1,5891.7,13042.5,11503.1,3886.5,10056.7,0.0,660121.0,
71,0.191,16517.5,18048.9,19761.2,20296.5,19537.4,21054.5,22659.3,17667.9,20338.0,9999.4,11230.4,23091.3,13466.2,14236.0,15236.7,19581.5,17339.8,16353.2,14217.3,0.0,655676.9,
72,0.195,10567.0,8937.7,12064.3,11048.1,11049.6,12981.1,12893.4,16649.3,15117.3,17385.8,18836.8,15881.4,19435.6,20155.8,17310.1,20850.6,18665.5,16554.0,13021.6,0.0,549241.1,
73,0.191,12157.3,12253.9,12580.8,17204.4,13454.9,13898.1,14142.3,12476.1,19902.3,23689.7,9682.0,56476.9,29784.9,10581.8,12213.7,21109.7,40727.9,19940.9,26802.3,0.0,602540.1,
74,0.198,6091.3,8716.5,10671.4,12386.3,9444.7,11571.8,12375.4,6358.5,11716.7,20677.6,9132.9,25216.3,22653.3,5370.4,5703.5,28030.3,29041.5,14600.8,15756.3,0.0,567168.0,
75,0.264,33000.6,31760.0,30927.5,24468.1,32053.6,32519.9,26404.6,28800.1,29014.7,30414.9,29189.8,35498.6,31320.9,29240.0,28180.9,30069.5,32561.0,25784.6,27150.7,0.0,563932.4,
76,0.208,5996.6,9750.7,15282.5,16792.4,9258.4,11862.3,14397.6,8952.8,11022.2,16867.7,7992.1,12660.5,14277.4,6924.5,11446.3,11248.9,15981.0,15204.4,18852.1,0.0,594033.1,
77,0.297,20114.2,19042.0,17715.6,20574.2,21046.2,20867.3,21034.8,22358.8,23163.5,18020.6,23055.6,27795.2,18892.2,16530.7,25149.7,46878.1,34060.7,18667.6,18406.7,0.0,461768.4,
78,0.503,16687.5,19061.5,20935.3,20828.0,21877.9,25597.7,25520.0,24275.9,27934.8,21144.0,18198.5,31500.6,26171.9,19120.6,23615.4,25464.5,31157.9,25188.4,23656.8,0.0,621417.3,
79,0.691,14490.5,16105.9,14379.1,13429.5,13410.3,14568.9,14669.3,14962.4,12908.0,10598.3,11224.3,14188.6,9728.1,12434.6,17115.8,11327.7,14455.8,11880.5,12194.0,0.0,615284.2,
80,0.466,9420.7,11693.1,16118.1,13156.0,12441.0,14901.6,14454.9,10945.4,14368.9,9717.3,8261.7,11259.6,13450.7,9514.4,10397.4,6658.7,9711.1,11613.2,9567.5,0.0,577058.8,Seeing purple and red static in space with eyes open while looking at the candle. 
81,0.315,16509.6,24289.9,26367.5,25654.0,23691.6,26893.5,27294.2,21146.4,27725.3,20738.7,18175.9,30871.8,27918.8,17049.8,23733.4,17451.3,25660.1,27422.6,22802.9,0.0,593241.2,
82,0.274,13483.7,15218.1,16557.1,15940.9,13911.2,15095.9,14812.8,12693.5,14562.4,15820.7,12303.5,13267.1,20067.2,14182.2,14699.9,12486.5,20749.4,16308.8,18207.9,0.0,616624.4,
83,0.557,11409.0,15185.7,17429.8,23225.4,17088.2,18560.3,18364.2,15620.1,23288.6,23396.2,11809.8,49217.3,36090.7,10728.5,20518.7,26117.4,34461.6,23788.9,23891.0,0.0,696590.0,
84,0.383,19395.5,23393.3,26649.7,28509.1,25832.3,28779.5,32186.7,20779.0,39413.2,40036.8,14433.1,47873.6,44433.6,12369.5,19283.7,28065.1,70081.6,35317.0,34016.4,0.0,709565.1,
85,0.2,8892.3,13731.6,16398.6,12566.9,12573.3,16714.7,18466.5,8603.0,14451.4,9575.8,9426.5,11444.4,11774.3,7721.9,9693.3,8388.4,13555.3,12571.0,11519.2,0.0,728349.2,
86,0.186,11117.5,14593.6,15422.3,15778.2,13598.4,15310.0,16369.2,13018.8,15273.6,15779.4,10885.4,13291.3,18221.6,10029.6,14316.7,10659.3,16707.1,15062.8,15044.3,0.0,705840.8,
87,0.152,11707.2,13395.9,14617.1,17502.8,14549.1,17870.8,17068.6,10508.7,18670.6,19617.6,4968.9,13893.3,25835.1,6018.3,9126.9,7766.1,13776.5,21237.6,18785.3,0.0,689953.4,
88,0.174,10377.0,12056.1,14500.9,12646.3,13176.6,14706.2,15313.2,8281.7,13378.3,14724.0,8849.7,15221.2,19015.2,8204.0,11313.9,10895.5,15133.6,16820.9,15316.5,0.0,645820.6,
89,0.175,13753.1,16105.8,14114.1,19932.7,16839.2,17176.1,16489.7,11809.7,15751.4,23459.0,8067.9,15679.4,21318.5,13031.9,9373.1,9204.1,22094.9,22011.8,27486.7,0.0,708091.6,
90,0.313,11405.8,12493.9,10389.4,10977.5,10568.1,10603.2,10508.0,11094.0,11057.1,13265.2,13845.1,30706.0,15447.1,11791.5,20403.1,19960.1,15921.5,11441.3,15005.1,0.0,731243.8,
91,0.19,10816.1,10083.4,12129.5,15684.6,9571.6,10634.0,12163.0,9913.5,13157.1,17090.0,12960.8,26549.1,15423.4,11941.9,14912.9,30822.5,32064.2,12883.5,16860.7,0.0,692329.8,
92,0.255,25932.4,28057.5,36765.3,36741.6,29071.4,34921.9,38718.0,29165.1,41259.5,38571.7,35972.9,44836.7,48770.1,40675.3,30368.3,37442.4,45152.3,40507.7,38414.1,0.0,717117.0,
93,0.2,10233.4,11694.6,15206.5,17874.4,11614.2,14309.8,15902.7,8336.9,10411.8,17591.4,9801.3,16612.5,11844.1,9833.6,12734.7,14232.7,8548.0,13802.8,22148.8,0.0,584230.0,
94,0.362,16433.6,22200.7,29364.0,39460.5,27619.7,33609.0,37897.7,25612.0,41435.4,61966.3,25067.9,63915.4,64131.1,18283.5,32982.3,52895.5,83211.0,48311.4,52281.4,0.0,935341.1,Closing my eyes.
95,13.64,19794.3,52779.3,47091.7,28061.0,23242.9,26679.7,29525.2,17095.9,23532.0,28491.2,18771.5,43093.4,34262.5,17892.9,22388.5,38237.0,33490.2,26131.6,30718.2,0.0,583487.8,
96,0.672,7642.4,13149.0,16081.0,14812.1,11139.0,14246.7,17478.7,13991.4,20493.8,22809.0,10901.0,17911.0,20788.6,7864.7,16442.7,18805.5,19562.0,22184.7,22874.3,0.0,533987.0,
97,0.232,11494.2,13367.0,14825.0,9925.5,14185.6,15429.2,16236.2,11197.2,18088.3,15478.6,9047.7,18392.0,19734.8,7378.1,10679.7,13707.4,25869.2,16543.2,9416.8,0.0,513325.8,
98,0.227,11562.8,13244.2,18384.6,23881.5,12534.6,15858.4,21390.8,14230.4,19515.4,40166.7,23789.3,37335.6,45051.9,14598.4,21234.6,30096.1,71652.9,29074.6,25290.8,0.0,529791.2,
99,0.392,20734.8,28362.8,31395.2,28855.1,26835.7,35677.1,33876.3,23257.2,35276.8,21789.5,16127.2,23460.5,25521.9,14018.7,17505.1,16563.3,21665.2,29044.4,27433.6,0.0,572863.9,
100,0.208,23893.9,30219.8,26433.3,23550.4,35883.8,36804.5,34837.8,33973.7,44134.0,24892.5,15746.2,74154.9,41178.1,18603.2,35774.8,53650.9,83848.6,34294.5,22323.9,0.0,579250.9,
101,0.325,12177.8,10738.4,11724.6,11785.3,13871.1,13949.5,13635.4,18003.5,17568.8,12557.2,24248.8,37364.6,17295.9,13677.9,25393.5,76761.7,53377.9,12214.0,13850.0,0.0,579887.0,
102,0.486,13715.8,17649.4,22982.5,23819.4,19287.0,21330.5,22405.1,15778.9,25716.9,18662.8,14447.0,93009.9,26645.2,9110.7,27874.3,69613.6,45602.4,23044.6,24300.5,0.0,581311.1,
103,0.281,17305.1,16134.8,12719.0,13181.1,14831.2,13986.7,13310.3,17066.0,19190.4,22450.2,21026.0,30889.0,29555.8,14768.4,26222.7,33032.3,33603.8,22408.6,20073.8,0.0,629121.3,
104,0.328,9864.9,11859.5,9630.7,6790.7,12393.7,14096.9,10589.8,8382.6,10758.6,7238.3,7683.5,6597.3,8504.6,9315.9,6229.2,7725.7,9232.6,9979.4,11457.8,0.0,808351.5,
105,0.201,9858.6,11691.3,13595.9,13680.2,10598.9,12372.8,12559.0,10173.1,11771.4,11906.7,12601.7,16671.9,10039.5,8520.4,12963.6,22904.1,21174.6,11521.4,16300.2,0.0,607288.5,
106,0.205,12590.0,15042.1,17435.3,19650.1,19233.4,21305.2,22373.9,16844.7,29747.5,23155.8,12181.1,33330.5,27066.6,12242.5,19394.2,22095.4,35016.0,26946.3,22965.4,0.0,691101.1,
107,0.189,10465.5,13724.0,12993.3,13307.4,13645.7,13962.9,14918.4,12348.5,16010.6,8983.2,8354.4,42089.1,13784.1,9800.4,14333.9,22641.9,19905.7,13601.5,13902.8,0.0,659711.0,
108,0.218,10701.5,15868.4,15278.2,10879.7,15412.5,17264.2,15794.0,9899.0,17904.4,11673.5,10312.7,79412.2,26846.2,6479.5,22370.6,41856.4,27677.8,17099.6,11187.7,0.0,634178.8,
109,0.239,9493.1,16370.7,23702.9,24679.1,20177.9,28794.9,28562.8,16659.8,40692.6,31826.9,10474.1,104105.5,41662.8,7136.2,29510.3,59267.9,43990.5,38029.3,25666.1,0.0,643984.3,dot with green in the center-  then yellow-  then some orange-  then some black with purple-  halo around it and a negative after image of the background.
110,0.457,21830.8,31988.1,40952.2,32918.3,25061.3,28305.7,30450.2,17182.7,19562.3,23825.2,15183.0,25324.5,24939.0,15147.0,20574.8,27694.8,31386.0,21790.8,30518.4,0.0,615715.9,
111,0.234,13930.1,15370.6,15799.7,15524.1,15289.6,16853.3,17867.4,20243.7,27029.8,20817.2,15734.1,46082.4,25360.2,13068.2,27943.3,23750.3,29956.6,19481.0,15993.3,0.0,606703.0,
112,0.162,6560.1,7345.7,7896.4,9524.1,8405.4,8973.1,9731.1,7892.0,8940.1,10592.9,8729.5,17950.0,13084.8,6413.4,12405.4,22262.0,15591.4,12440.6,11399.2,0.0,560553.3,
113,0.248,4651.0,4648.5,6504.2,8214.7,5408.9,6340.3,7330.6,9203.5,7631.2,10337.7,10937.5,22637.9,12870.7,9788.6,13539.4,24836.1,19816.9,10329.3,11996.6,0.0,712440.8,
114,0.399,9211.9,12370.0,11495.5,8093.2,10449.9,11469.1,11315.9,7501.9,10278.8,8772.0,8992.7,11951.8,9132.4,8729.1,9724.1,10787.4,12069.2,7727.6,11153.2,0.0,615231.9,
115,0.342,7586.6,8950.8,9224.7,12555.6,7439.8,6970.3,9208.6,5957.9,6612.6,8666.6,6736.5,7667.3,5965.1,5638.9,7887.8,8484.5,7717.8,7585.5,10848.2,0.0,594367.1,
116,0.388,11788.0,14614.2,21713.8,16975.0,15627.0,17646.8,18921.4,14683.0,16231.1,10832.9,14687.8,15497.0,14163.5,11956.6,14482.9,16530.7,10501.2,19137.5,16314.3,0.0,467334.4,
117,0.657,27376.7,30438.9,28652.6,25733.5,28358.5,32186.2,29461.2,24503.2,30167.5,16020.8,23894.4,22089.6,16694.7,23420.9,22978.3,30153.9,19634.6,22491.4,19302.8,0.0,573520.9,
118,0.285,8556.9,12761.7,14363.8,12270.9,12579.8,12376.4,12347.0,8347.6,7917.9,12086.5,5639.8,8204.1,10023.0,5412.7,7579.4,5244.5,12568.4,9741.5,11085.9,0.0,522831.2,
119,0.316,11397.3,11779.0,9863.7,8478.5,13429.7,13361.9,11320.3,11611.1,11930.6,9958.7,14672.8,12583.3,10394.4,13922.8,11849.8,15527.7,12242.6,10335.1,11164.1,0.0,576947.4,
120,0.302,20760.9,30966.7,34215.8,29049.9,35448.8,39751.7,41848.1,22084.8,52917.7,22663.6,40935.6,155736.6,42406.9,7947.4,48884.2,174626.6,124645.7,36490.6,20673.0,0.0,495616.9,
121,0.267,7442.6,11852.4,13396.7,11087.7,12473.5,14620.8,13395.7,7257.4,10253.1,18613.7,22112.6,134212.5,19950.4,8813.2,48059.5,162305.2,88820.2,4737.1,14944.4,0.0,560831.1,
122,0.203,9812.9,12823.6,11659.2,11453.9,13065.3,14257.6,12853.6,17455.5,26003.0,12167.4,11855.1,119507.2,31276.2,11229.6,34416.5,39802.9,35789.1,16989.0,16691.6,0.0,578360.5,
123,0.276,12028.1,16003.5,15501.5,13318.2,15321.0,14905.2,13499.1,17082.6,21308.9,14626.7,8983.3,42317.9,18062.5,12291.0,20093.4,22505.8,21954.6,15973.8,18482.6,0.0,576528.4,
124,0.189,16346.9,28991.8,36445.3,36085.8,48073.8,59669.2,58227.5,45491.0,91277.4,36500.4,13518.2,122154.2,71084.8,12559.6,59194.2,59072.9,58767.2,61724.6,35849.1,0.0,550062.2,
125,0.203,6555.8,10036.5,16762.4,21438.7,8608.0,12221.3,16866.5,8012.7,12766.4,26879.0,9286.1,35864.2,23282.1,4813.5,14674.9,38258.5,39301.9,17369.6,28949.3,0.0,474128.9,
126,0.274,3692.3,4169.4,6234.7,6189.1,6972.4,8284.9,8972.2,8161.1,11241.3,5880.3,9813.8,49434.2,16382.1,6700.9,14263.2,35296.3,35583.3,8670.7,4482.1,0.0,446984.9,
127,0.232,10176.9,11797.1,14828.7,14972.0,12293.1,15639.6,15062.6,14863.4,19443.4,15332.0,24901.5,147923.4,24572.2,13073.3,51035.9,107499.0,38312.8,15076.5,16931.5,0.0,478287.5,
128,0.225,12040.3,11772.6,12899.8,14516.1,15191.0,16938.4,14934.7,19552.7,22088.1,17181.6,16373.8,56799.9,20723.0,17581.6,25372.4,24095.1,20500.7,18262.8,20920.3,0.0,408552.8,
129,0.288,7892.8,8811.0,10267.5,8766.9,10249.7,12543.8,10764.8,11492.2,19131.8,15754.8,10375.6,18304.4,25037.4,11379.6,12066.3,11786.0,16675.0,17044.2,17754.5,0.0,426498.3,
130,0.195,6163.1,9052.9,11028.4,10516.4,9496.7,11229.7,11948.6,8456.0,14030.2,14132.7,7687.0,13886.5,15251.6,5328.7,9068.3,8790.9,17071.3,12351.6,12484.7,0.0,530516.2,
131,0.222,5931.7,8879.0,12602.2,13332.3,7667.3,9935.4,13240.7,6986.9,7751.3,8920.3,6104.4,9490.4,12915.1,6664.9,7903.5,7502.1,12271.6,14169.9,11610.9,0.0,482132.2,
132,0.19,6975.5,10045.0,9687.5,9129.9,10304.9,11091.4,12228.6,8793.0,13835.2,7589.3,5695.2,10237.4,10034.5,6105.1,7794.8,6362.6,6551.3,12024.9,9241.9,0.0,469658.5,
133,0.425,10390.6,12810.2,17436.0,20336.6,12269.9,14855.8,17492.2,10066.2,17179.6,22632.5,9301.4,49276.4,22715.0,7831.3,20412.7,32021.7,36082.1,17538.8,20006.4,0.0,524984.4,Space getting more 3D with undulating purple and red scales around flickering red dot. Undulating space with red and purple particles and a flickering red dot.
134,0.37,13809.9,19392.0,25469.7,17926.3,15602.6,18647.5,19068.2,11296.8,12961.8,15010.9,13057.3,20196.7,18673.9,11227.9,13495.9,16942.8,15518.8,15396.0,17932.4,0.0,463767.4,
135,1.124,12938.1,13095.0,14169.4,12832.5,12757.3,11593.0,10612.1,11939.6,12587.6,19241.5,16398.8,14923.7,18048.0,15469.9,13618.9,14643.0,26075.3,14282.1,14879.2,0.0,461720.2,
136,0.385,7439.4,6768.1,7664.3,10011.8,9992.8,10770.5,11961.0,13466.9,18277.0,13829.1,12913.1,32516.6,22197.6,11689.0,19677.6,23950.5,20677.6,18532.8,11939.2,0.0,438438.6,
137,0.484,8547.0,11940.7,14136.6,14902.4,11099.8,13295.6,15452.9,9959.6,14704.3,13520.2,6153.7,57704.5,26648.5,6573.1,14910.2,19571.5,27502.7,17741.8,15396.5,0.0,420922.5,
138,0.345,18007.4,25852.9,34644.2,30369.6,23876.8,30389.4,36043.7,25526.2,46965.1,38738.1,22372.7,194399.1,80409.1,16702.0,53701.2,80986.9,93570.5,47206.0,35161.2,0.0,540617.0,
139,0.691,24953.9,29554.4,36687.1,41238.8,30541.5,35353.0,42394.7,21852.3,40877.2,42486.9,14336.9,91814.3,65289.7,16576.3,27267.5,37534.4,57143.4,50831.5,40657.3,0.0,521212.3,
140,0.245,8543.9,12973.8,18645.7,21473.0,13742.7,18024.5,22563.2,13888.3,18794.9,30686.0,15935.7,70787.5,30266.2,9019.4,28784.3,73332.4,38171.4,21089.2,26949.4,0.0,465647.0,
141,0.365,21138.9,25979.9,32267.5,33313.0,23047.1,30160.1,30375.5,18381.5,24841.6,16663.0,21135.7,121245.9,29106.5,12465.5,42578.6,113674.6,73884.0,22875.6,23126.5,0.0,441597.7,
142,0.177,9282.4,14430.1,14287.7,14569.5,15151.8,18412.3,17548.5,15414.2,23384.8,15799.8,21688.4,137227.5,35623.1,10123.4,35719.8,102869.4,89235.7,20332.1,17786.3,0.0,435140.0,
143,0.226,11191.2,13368.1,13507.2,13367.0,14318.9,14066.7,15150.0,9893.5,17271.7,14170.8,6702.1,55132.4,16949.0,7784.9,12363.0,20888.4,24480.9,14184.4,15554.9,0.0,389489.7,
144,0.278,8487.5,10147.8,15916.9,14528.3,12917.6,16373.7,17491.5,10324.1,15813.1,22643.7,10128.7,37423.2,23943.9,8518.9,15528.2,26458.5,19913.1,18066.1,16329.5,0.0,422538.2,
145,0.174,8019.1,8342.2,8111.8,9180.6,7835.6,7856.9,8600.3,10581.3,11323.4,13187.8,14379.6,26172.6,16351.1,10704.5,11929.0,15315.0,17159.7,10464.1,17190.5,0.0,449747.5,
146,0.287,11909.4,16161.2,18388.0,22793.4,16771.9,22465.8,24007.6,17141.9,27829.4,25752.2,11413.4,38201.0,31297.2,10784.1,19429.7,21716.9,26927.7,26550.5,28293.2,0.0,497153.7,
147,0.229,8375.6,11586.8,19873.0,16987.6,10400.0,12969.7,15304.9,9982.7,13781.3,23983.8,7901.7,23402.3,15390.6,7365.8,12158.3,8673.6,14504.2,15696.5,28358.2,0.0,497661.1,
148,0.186,3476.0,6076.4,6269.8,8426.5,5675.4,7009.8,7640.8,7809.1,14463.8,14095.0,3047.1,34011.6,19561.8,4619.4,9238.9,7128.9,22475.5,13531.9,10286.5,0.0,416737.8,
149,0.216,6186.2,11680.5,17513.5,19692.6,13573.2,18523.8,21420.3,10711.4,21465.7,18899.4,21073.3,38605.8,26580.5,12012.1,18009.5,36250.0,30913.5,20112.3,16385.4,0.0,458751.7,
150,0.197,5611.5,6949.6,7021.8,9128.3,7303.8,7009.0,7634.7,7142.2,11063.4,14855.4,7254.7,25971.6,15131.7,6049.5,10404.7,19156.0,24609.9,10828.7,14987.0,0.0,544398.3,
151,0.221,30071.7,34705.7,36541.0,32644.8,39091.9,42247.4,42549.1,35373.3,54060.4,26452.0,17011.8,153296.2,57511.6,24972.4,45596.4,104281.1,131058.7,46291.0,32157.7,0.0,462131.5,
152,0.189,11782.0,14151.1,18320.3,20158.9,15364.0,19437.6,20491.1,18115.9,29575.9,32043.2,22130.8,99371.3,37176.7,11837.5,36639.4,89561.2,70833.4,26648.3,25071.4,0.0,460205.1,
153,0.212,16237.7,16738.0,15723.1,13768.4,19194.8,20942.2,18738.4,25625.6,30946.2,31034.4,25578.2,177856.3,63084.5,15774.3,59440.9,127679.0,157978.7,25171.1,12531.7,0.0,498537.3,
154,0.237,17462.8,16867.8,18965.7,22476.5,18985.5,22788.6,24165.8,19864.7,27953.8,28232.2,36931.4,97087.2,47567.1,22579.1,38944.8,115659.0,59828.7,29686.6,22341.1,0.0,466236.1,
155,0.345,23445.2,27800.5,30853.7,26033.1,29768.9,34815.0,33014.3,26042.9,32083.9,24163.0,16843.8,84864.1,42539.9,21393.3,25864.9,35986.1,61969.4,31481.4,22674.7,0.0,439754.6,
156,0.277,14472.2,15782.6,19952.8,17025.8,21512.5,23698.3,24085.9,23749.6,38664.2,27383.0,20179.3,84509.6,38367.5,16115.2,31923.2,39092.1,41586.2,26566.9,22099.1,0.0,464514.8,
157,0.284,16982.6,37632.9,41512.8,31398.2,32690.3,42096.0,39442.1,18416.6,35122.3,28822.3,12633.4,109566.5,41166.6,11469.9,26523.7,115608.2,104974.4,27998.5,25095.0,0.0,506779.8,
158,0.22,12413.3,22734.5,26433.4,25060.3,24164.2,32146.8,29595.2,20506.3,38696.6,47475.6,25810.2,164528.7,81184.1,10044.7,49513.9,146091.8,152238.7,37186.2,31594.8,0.0,577010.8,
159,0.235,8096.0,10123.1,12386.6,15775.4,11170.6,12233.6,14475.9,12217.7,19538.7,16273.5,10715.8,94779.4,29177.8,8505.5,25182.5,41478.9,45290.6,15976.8,17293.3,0.0,472835.3,
160,0.266,13865.3,17625.2,18736.4,19275.7,15750.4,17411.1,18232.0,14039.5,20514.2,12585.8,8778.9,28610.4,19333.7,12233.3,15466.1,18506.6,17716.6,18319.8,16867.9,0.0,555899.7,
161,0.284,16251.6,18799.8,18256.9,18777.2,18329.4,19654.8,18554.8,11542.1,14314.8,12493.2,9992.4,8151.4,11200.5,10169.2,7523.8,5018.8,9076.9,15174.7,21666.1,0.0,468467.0,
162,0.49,9793.1,13961.3,20624.1,19763.3,14652.4,15492.3,18655.4,18168.5,17538.3,17588.7,22090.8,59949.1,21562.2,16082.9,32263.4,40365.4,35278.6,16463.1,18461.9,0.0,432332.5,
163,0.351,10926.8,16896.1,20136.4,20626.8,17495.6,22125.5,24467.6,12797.1,20872.6,16852.9,10164.9,22320.6,22310.1,8557.5,12131.0,15366.2,24824.9,22356.0,23071.4,0.0,494174.5,
164,0.405,11719.3,17158.1,18793.3,14474.1,14619.5,16376.5,15202.7,11210.2,18116.2,15222.6,6296.1,59958.1,31236.7,5405.0,15081.0,18356.4,45616.7,18122.3,16517.1,0.0,494718.7,
165,0.369,24078.8,26009.6,26140.5,28108.6,23474.0,26263.0,27014.6,24919.1,36829.1,34276.6,25022.9,102695.4,55202.2,22672.7,36788.3,59065.2,68956.4,37499.6,33409.0,0.0,589317.6,
166,0.243,14863.1,19692.0,19965.8,21172.3,20773.1,23628.2,22878.6,13725.2,30883.8,18842.6,8679.8,106875.2,36767.3,5717.6,10588.9,63788.9,57982.7,27946.4,17934.5,0.0,565279.3,
167,0.24,9808.2,14769.5,21003.0,26844.7,18629.5,25294.8,29626.6,17222.8,45642.9,28107.9,10553.5,155282.8,70513.1,7973.7,31487.4,67546.4,71104.6,40588.3,26122.1,0.0,601890.4,
168,0.25,9029.7,9844.9,12413.4,12006.6,13619.7,17123.9,17240.5,17710.4,29920.6,17408.6,19010.1,133955.8,42487.9,12676.7,44106.0,70193.1,43181.8,23896.0,11130.0,0.0,492280.1,
169,0.288,16917.7,22264.4,28706.4,28394.2,27842.2,33196.6,33031.3,30100.8,37634.5,19558.8,24000.8,88836.3,33925.1,19491.2,47771.4,80196.7,36739.9,31166.4,23652.8,0.0,519127.8,
170,0.183,13281.8,16539.7,19737.0,20066.8,16468.4,19911.0,20444.9,13801.6,21454.8,29714.9,12914.8,111022.1,48194.7,9648.4,25495.7,81636.5,130487.8,21430.4,22869.5,0.0,614496.4,
171,0.246,9212.1,8648.5,9533.7,9909.3,8571.0,9776.4,9063.2,9040.8,11863.4,15370.0,8409.1,27407.1,17206.5,10336.3,8572.1,11160.9,16262.7,11769.8,17854.8,0.0,507455.8,
172,0.185,10900.7,13086.8,12214.1,10068.7,14546.3,14751.7,12430.5,11648.8,9887.8,11056.2,13210.4,37111.9,16443.5,14224.2,16549.7,25119.8,20293.6,9916.2,12753.8,0.0,544401.3,
173,0.345,18547.9,20197.0,19606.9,16332.8,19047.8,23020.0,21134.1,15675.4,25528.5,15384.6,8973.3,53095.2,20326.5,12306.2,14904.0,40139.4,27187.5,22087.8,21958.2,0.0,563165.7,
174,0.257,28736.0,35798.2,32713.1,27618.2,38424.7,40544.2,36719.6,36285.8,59359.1,44617.2,27316.7,260437.6,101922.4,19227.9,67758.1,203651.2,216537.6,43058.5,27359.0,0.0,456045.8,
175,0.256,26104.6,40208.1,48279.0,49751.9,44584.9,52666.0,59018.7,30305.4,68191.7,34215.4,15079.3,133234.0,64260.8,16357.2,36576.3,78904.0,74536.0,69193.8,49471.3,0.0,418201.2,
176,0.24,17230.9,20293.9,22642.8,19623.0,21398.8,26637.2,24975.9,20364.5,28992.5,17603.9,14571.3,46030.2,25852.6,14254.2,21047.9,38718.7,25346.3,23412.8,17361.1,0.0,479849.2,
177,0.223,20953.2,27475.2,26039.1,23903.0,27100.2,27228.7,23969.3,26834.3,27576.5,22962.4,24356.7,32206.3,22428.3,22298.4,27761.4,32773.2,24883.7,22091.4,25170.5,0.0,633806.5,
178,0.2,11382.4,14769.6,17144.2,21855.3,14880.0,16534.4,17247.9,11990.3,17091.8,27449.3,7090.5,21030.4,24101.5,6762.3,11124.3,13415.5,35296.5,20057.2,28818.0,0.0,507305.7,
179,0.267,17708.7,25040.8,27396.1,25552.7,26742.6,30232.2,31666.2,24396.5,36577.7,27731.7,25678.1,103572.4,53382.0,17025.3,38807.8,80674.5,71092.8,34562.5,27997.8,0.0,535346.0,
180,0.184,9291.1,9583.6,11221.8,8832.5,10598.2,12306.0,11406.2,8916.2,14238.3,7384.3,6622.3,26837.7,11563.2,7541.6,7026.6,11535.7,12369.9,9226.9,9875.5,0.0,533712.8,
181,0.266,9169.6,12815.6,15123.5,11961.8,14649.0,16151.6,17720.2,13141.2,23256.1,15630.3,9067.6,54080.9,23730.2,8817.3,20798.0,34007.0,30261.0,15840.8,10483.1,0.0,571229.8,
182,0.165,10185.2,9937.2,12670.8,19669.8,10633.5,10403.2,13512.8,13390.6,14867.5,22345.1,21908.8,71658.6,29479.6,12209.9,28103.5,112263.5,61947.3,19219.3,27047.6,0.0,621281.2,
183,0.18,12142.7,17310.5,16438.9,12256.3,19772.6,22004.6,19849.9,19455.0,28430.6,18670.3,15085.3,100642.4,37697.7,11222.8,30626.8,71171.9,102699.9,18559.8,11772.3,0.0,584149.1,
184,0.182,3354.5,7738.6,14388.3,12780.5,8804.3,13117.3,14586.2,7331.2,16612.0,28423.6,13622.4,114756.2,65107.3,8481.2,24023.1,69872.6,105707.9,21684.3,21400.1,0.0,611675.4,
185,0.229,17413.6,20703.8,23735.5,19212.4,24187.2,27781.8,27279.8,18894.6,30818.6,25837.7,36762.5,304654.1,87332.0,14121.7,79232.7,210700.9,175124.3,24300.2,15724.6,0.0,586735.8,
186,0.222,29561.4,37010.0,32773.4,26510.3,39556.9,39709.4,35298.7,25461.1,48933.7,12817.0,13296.7,191390.7,53464.9,14550.8,48238.0,92924.7,79963.2,29955.4,14566.9,0.0,693777.6,
187,0.37,25754.4,31530.3,29755.7,22309.6,29976.7,34529.3,30665.9,15659.3,27103.4,10493.1,12135.8,128947.1,30877.8,13865.0,23651.3,45836.8,51618.8,23879.4,17919.8,0.0,664501.7,
188,0.244,11851.2,14554.0,23569.7,29405.8,16781.9,23366.5,29197.8,22370.4,33511.1,29148.4,13436.5,93466.4,47367.3,13691.5,30616.4,33368.8,40286.6,36982.7,38811.2,0.0,619840.2,
189,0.202,9223.0,11630.1,15290.4,13057.1,11156.8,13580.4,15618.1,11466.3,11651.1,17835.6,13586.7,16300.1,19472.5,11404.4,15491.3,16568.0,16057.3,17007.2,20833.8,0.0,606120.4,
190,0.428,10252.8,16890.0,21937.8,21213.6,16606.0,19971.5,23367.8,14946.2,26760.1,20836.9,15826.6,82496.2,42457.2,13721.3,30126.8,57767.3,36856.8,27716.4,21646.2,0.0,602589.3,
191,0.363,6480.5,6909.7,7598.1,9099.9,9094.9,10072.4,10506.3,10519.0,17272.6,15786.3,7033.1,84318.3,33001.4,7364.6,17961.9,33067.0,27137.5,16286.7,11413.5,0.0,653925.7,
192,0.318,20835.7,27506.2,32514.7,30907.7,31881.7,39772.2,38736.0,20648.4,38029.0,18730.2,8964.1,56438.3,25689.2,10962.4,24004.3,48303.3,31931.9,28783.4,23904.9,0.0,624058.1,
193,0.355,37914.6,39675.7,44703.8,47996.1,45374.7,46103.2,49223.9,38612.8,60735.9,38417.1,29250.9,132332.9,75238.1,31441.5,39377.2,50443.1,51647.5,60383.8,45228.5,0.0,651240.7,Dot is getting smaller and darker with undone. Undulating grayish pink particles around it.
194,0.814,15556.1,19821.0,23599.3,20801.8,18195.3,20888.9,22714.8,18749.7,21016.3,18709.8,17716.2,42662.6,22151.4,16594.7,20551.9,25346.1,26265.1,20607.3,21227.5,0.0,538569.9,
195,0.23,21335.8,27534.9,31270.2,29033.4,30539.6,32771.1,29291.2,20087.1,30308.6,23765.6,15090.0,20665.0,23764.5,15818.8,17759.0,17579.9,21350.7,25714.7,28681.5,0.0,494970.6,
196,0.463,9816.0,13881.2,24364.8,20997.1,10945.7,15081.4,18687.9,7136.8,14072.5,12458.4,5630.6,16170.3,16858.0,6504.6,6960.9,6108.9,10598.5,20985.6,19608.2,0.0,481757.0,
197,0.258,6812.3,9131.6,14761.5,17905.9,11481.7,13803.7,15059.7,8984.7,14519.3,13660.8,7559.9,17089.9,14199.6,6942.3,9758.4,11322.3,13688.1,17456.4,16956.9,0.0,593217.7,
198,0.871,9672.3,9834.9,11340.1,10139.3,12293.6,13746.4,12915.8,13252.8,19971.8,16055.9,8045.4,49411.6,28026.9,9112.7,16775.4,21364.9,29206.9,17708.6,16670.1,0.0,548774.8,
199,0.543,18967.9,27681.6,27477.3,19782.2,22690.6,21737.6,19458.1,15822.0,18066.5,10852.8,10022.5,13681.8,13439.5,11806.6,12905.4,13670.3,14215.0,16041.5,15199.6,0.0,655717.4,
200,0.247,12465.6,11426.1,14023.0,18093.2,14057.7,14888.7,16264.4,16599.7,19979.3,28495.0,12361.1,42602.1,30861.8,11814.7,19185.6,18885.6,32599.5,20825.4,24950.8,0.0,508926.1,
201,0.367,13536.9,13693.0,16905.8,14613.1,16413.6,17367.0,18129.4,15567.9,21042.3,15919.4,14455.2,24934.2,21628.0,12818.0,19120.5,13189.4,16968.3,17893.4,19295.2,0.0,580665.9,
202,0.185,11656.5,16210.9,20064.1,21412.2,13868.2,17918.2,22504.4,13534.7,18178.4,30493.6,9855.0,25664.5,28140.7,9983.5,13698.5,17805.0,27476.9,21993.1,24864.9,0.0,486209.3,
203,0.215,6905.8,8506.5,9269.4,12477.0,9071.1,10651.7,10010.7,8606.1,10127.6,11754.9,9763.8,12162.5,10898.2,7786.6,11907.5,8766.7,10414.2,10229.7,15264.3,0.0,577074.1,
204,0.294,10525.9,17528.0,19648.5,16505.0,17563.1,21391.3,20880.2,12139.7,21486.4,17221.2,9534.6,20241.4,19039.3,9292.2,12159.3,15436.1,20291.9,20306.1,16913.1,0.0,472642.2,
205,0.302,13694.1,19434.4,23632.5,21089.4,20775.8,23842.6,22017.5,13668.4,25563.8,12357.3,7764.1,28475.2,20070.8,7651.7,10785.2,13836.6,19866.1,18708.1,19406.6,0.0,438390.4,
206,0.309,12175.2,10433.8,10838.6,11549.3,14116.9,12775.8,13122.3,15032.2,21544.1,19037.8,18760.1,54092.9,28638.2,15340.7,23285.7,31118.9,35247.3,17447.5,14392.7,0.0,483249.8,
207,0.222,11495.8,16604.8,17093.7,13740.1,15994.7,19431.3,19367.3,12851.1,20678.3,9064.3,9755.7,27419.2,16421.8,10407.2,13149.4,17210.2,18076.7,15944.6,11522.0,0.0,465768.2,
208,0.403,26258.3,27799.7,29641.3,28847.7,33606.0,33020.6,31979.7,39138.6,45163.2,33449.1,32629.5,50695.7,39126.2,35866.4,42978.6,32311.5,31739.0,34221.8,38187.2,0.0,508660.5,
209,0.245,6845.9,11100.0,10797.1,9429.2,11551.4,13713.3,12701.6,8741.6,13764.6,11060.0,8247.8,8442.8,13236.9,8037.7,6413.3,6566.4,8985.1,14401.4,16676.2,0.0,463440.0,
210,0.186,7897.1,8470.2,11364.0,11397.6,8886.8,9565.3,10574.8,8414.9,13991.3,10483.5,8697.2,16906.1,12307.3,7938.0,10958.9,14629.0,16393.2,10869.0,11841.1,0.0,484949.9,
211,0.51,24643.7,22494.8,22738.4,25782.5,28077.0,27186.0,27837.1,32972.1,45550.1,37749.1,28091.9,159247.4,64479.0,18916.8,59020.3,96205.7,77965.5,39478.6,35455.2,0.0,450259.5,
212,0.298,13662.7,16266.6,16317.9,14058.1,19453.0,19371.3,19366.1,22957.1,33235.2,24405.0,27502.5,159673.7,54100.3,15311.6,47374.2,125686.6,95199.9,25419.4,17712.2,0.0,440671.2,
213,0.208,10681.7,11175.9,14274.8,11620.1,18523.9,19961.0,19450.2,19698.0,37395.0,25308.6,16153.5,146292.0,56726.9,13434.4,36445.0,54933.1,68355.3,26188.7,11042.2,0.0,431604.4,
214,0.242,23194.3,25815.7,25581.0,35102.8,33997.0,39332.0,37921.5,37755.3,52111.7,36407.1,27103.2,61966.2,56710.9,25864.8,41904.8,34966.1,45826.4,49159.0,46080.1,0.0,519579.5,
215,0.203,8856.2,12091.5,11753.7,13250.9,11701.3,13317.7,11909.7,13554.6,14035.3,21613.0,10809.3,20952.2,19669.4,13844.9,14193.7,14469.2,22856.2,16093.7,22361.7,0.0,412817.7,
216,0.278,30055.7,31132.7,32687.6,35828.1,29988.6,34289.6,34684.2,30133.1,29205.3,31724.4,28125.3,37036.7,32953.3,25186.5,29165.3,39793.4,38462.1,34935.1,37234.1,0.0,355880.3,
217,0.462,4047.7,8281.4,6757.3,5497.0,5598.8,7152.1,6060.2,5983.9,6618.3,4882.0,13583.6,8631.3,6826.6,5958.4,12429.6,21758.5,12070.0,4830.3,7199.4,0.0,408943.6,
218,0.312,9146.7,12390.4,12629.6,9975.3,11125.8,12833.8,10940.6,9130.7,9921.9,13145.0,7919.7,13632.1,14365.7,8210.9,7725.0,6704.2,22587.9,11123.5,10942.0,0.0,606312.2,
219,0.417,17915.3,23957.6,25155.6,23761.9,20934.4,21026.0,20693.8,22319.2,21249.5,24765.3,14342.0,25120.6,23212.4,17882.2,22927.3,20372.4,20910.4,22125.7,28098.6,0.0,708170.4,
220,0.342,11926.1,17462.5,21560.0,20306.4,13581.1,16806.0,20142.1,13619.7,17015.3,15050.6,13334.2,17506.1,17943.8,13087.1,15545.6,18099.5,22179.8,20233.3,19491.4,0.0,625731.1,Space getting a milky bluish white up a lessons with purple particles streaming around. 
221,0.288,11875.0,15052.0,18425.1,16319.6,12229.2,15240.0,16068.2,10324.0,14632.4,8368.6,4938.7,10287.1,9070.2,7103.0,8327.0,4956.7,8023.7,12511.4,25197.9,0.0,586072.8,
222,0.413,15776.3,18347.5,19254.7,20957.5,20000.0,21671.3,21753.8,18611.6,21310.8,20534.3,14496.2,19195.6,23366.4,15462.5,16353.8,13143.5,20495.3,22682.5,25456.4,0.0,749870.0,
223,0.637,17991.9,24104.3,25925.1,25861.5,18095.0,21665.2,25003.3,15335.1,19885.0,22733.4,9395.1,29023.2,28807.0,10038.7,13530.8,21381.8,29760.3,26350.8,23659.8,0.0,667026.3,
224,0.331,25300.2,31505.1,29114.5,23003.1,30213.0,32684.5,28053.4,28767.7,32871.1,13994.2,15416.3,24470.3,18517.1,19493.7,23559.8,17827.7,13098.6,23837.2,18952.2,0.0,645288.9,
225,0.56,11296.3,14930.9,11849.3,10098.6,13186.4,12532.1,11141.5,11109.6,12037.6,12443.5,8589.8,20503.0,16319.2,9740.5,11550.8,10237.9,15946.2,12831.3,12761.6,0.0,581820.7,
226,0.228,12372.1,18716.1,21504.4,17010.7,16955.0,20478.8,20367.7,13519.8,25454.1,19008.9,15500.1,120629.8,43008.3,11488.5,26152.1,85512.3,66241.5,23397.6,15188.7,0.0,502356.9,
227,0.284,11994.8,18220.9,19965.8,22973.8,19963.6,22025.2,21290.2,19705.3,28728.3,21639.1,14139.1,91690.6,36712.4,12784.8,30988.6,76959.3,51145.7,25994.4,23484.8,0.0,664141.0,
228,0.212,13505.7,15507.2,16603.7,20688.0,14912.3,15565.2,18368.6,12373.4,20858.1,42289.3,23223.0,106200.3,55713.1,15052.5,24067.2,83146.9,148356.8,24764.0,22148.5,0.0,583287.4,
229,0.404,17203.6,17756.8,15936.5,16602.3,15220.1,13659.1,13666.6,19696.6,17118.9,21313.7,21563.9,58213.0,25677.8,20443.0,23778.0,48924.8,37224.4,16798.1,19748.2,0.0,587229.0,
230,0.195,7114.7,5957.1,6670.8,9630.4,8095.9,8388.8,8752.2,15666.3,15305.4,15154.6,10715.0,54679.5,21214.7,8793.9,22835.1,43553.8,25576.5,13573.7,14052.9,0.0,554319.1,
231,0.233,22579.5,30109.3,30721.5,32298.6,27390.2,28845.3,32077.0,19977.2,27201.9,34490.1,15821.9,25668.5,31360.4,18530.3,16533.5,21317.0,31394.6,32214.6,38122.3,0.0,489868.4,
232,0.248,14479.1,22219.8,30067.7,28996.3,24975.8,32387.6,33192.2,18717.3,34388.6,39171.9,18690.4,69335.8,43644.7,11486.0,32963.3,58937.6,51436.8,30726.9,27536.0,0.0,547513.8,
233,0.206,16220.7,22683.7,29458.8,29340.6,25140.3,29217.0,32354.6,28663.8,35379.7,37083.0,16027.4,75649.1,43858.3,13649.5,39039.9,45727.9,42364.0,41764.5,39734.3,0.0,480758.5,
234,0.224,12044.6,15274.1,17142.0,18662.4,15551.3,16781.6,17733.6,16772.2,23142.8,11454.6,14455.2,23519.3,14013.0,12499.6,16353.8,19291.9,15923.0,14156.3,13921.6,0.0,431726.2,
235,0.24,12482.9,15200.5,24608.1,29192.0,17983.1,23860.8,25691.2,15129.3,21679.3,30640.0,11886.5,13405.2,34455.6,13776.6,11409.5,10027.1,23862.4,35265.0,28634.3,0.0,538945.6,
236,0.197,13593.1,17888.1,22382.6,16044.0,19029.0,24447.0,21125.5,19330.1,23989.4,18452.5,15898.4,44891.2,18444.6,14100.6,26517.2,43708.6,70344.8,14980.8,15493.1,0.0,484770.8,
237,0.369,33800.0,49372.1,58613.7,49602.5,52504.4,62501.3,62966.9,39224.2,67587.4,72251.3,44506.5,139474.2,88485.9,26351.6,56977.2,173171.8,259301.8,58810.3,46675.4,0.0,465585.8,
238,0.332,49247.4,46546.1,47468.0,42153.3,53452.2,53666.8,48513.8,52465.0,58684.6,49154.0,67070.2,143371.7,71173.2,48786.8,84948.6,214702.1,149932.8,48562.3,46893.8,0.0,571914.6,
239,0.237,14212.0,24365.7,25131.3,23097.8,27581.2,35662.6,33199.7,18803.2,42465.9,9687.7,15439.5,129743.8,30843.5,7096.8,40384.2,94509.8,38053.0,27526.8,18739.1,0.0,513566.8,
240,0.28,22265.5,28791.1,31575.4,31066.1,30940.8,33429.9,36716.9,28244.9,49001.0,45440.4,26665.3,100934.7,66405.0,24584.8,39900.8,90957.6,107990.1,42890.6,38207.0,0.0,549234.6,
241,0.35,16360.2,19382.5,20603.2,18082.2,20319.9,22951.4,21109.0,16744.6,17912.4,20798.7,25988.4,85952.1,20408.1,16720.0,33776.3,109810.2,70089.0,16848.1,16948.0,0.0,792846.4,
242,0.205,8051.7,11530.1,12147.7,8658.5,10958.3,12500.7,11691.2,11469.7,15038.5,10266.6,18652.1,35688.7,19852.7,11897.4,19685.9,36733.9,25190.6,13741.0,8800.7,0.0,587942.4,
243,135.173,1767344.6,81333.7,68404.4,3789770.7,33538.0,31529.4,34109.4,17663.3,25363.8,26515.5,13067.8,19763.3,23394.2,102405.7,13529.1,21107.4,26400.4,23442.1,30310.8,0.0,1334038.9,FRUITION-CALC
244,24.909,20957.6,39552.9,54637.2,28932.9,26372.9,29405.0,30089.4,18503.7,27465.7,12328.5,24487.0,20993.3,18062.6,18382.7,20528.4,62740.3,16011.3,23817.8,26638.3,0.0,1039799.1,
245,0.34,14002.1,18666.2,21714.9,15204.2,20492.5,22300.6,20107.5,13452.9,21891.4,9151.6,13314.4,33810.5,8805.0,7453.4,12491.2,118295.0,53904.3,13708.5,8467.0,0.0,925803.2,
246,0.413,13206.9,22933.8,30318.7,30740.9,24001.4,31170.6,33167.4,19630.4,31329.1,30944.6,23657.9,98011.3,53941.5,12376.5,39667.9,145644.9,153851.6,29788.8,24568.7,0.0,1330999.6,
247,0.375,8972.9,14091.6,17900.2,16974.5,14159.8,16012.4,17469.8,22834.1,27466.3,47038.1,32543.9,137615.5,70443.1,13858.8,54304.9,138990.3,220122.6,23402.1,19779.0,0.0,905992.1,
248,0.627,29673.3,40166.9,41789.2,34348.1,44670.8,51133.1,47616.4,39421.1,68467.9,29667.7,26132.4,102099.1,41348.5,31070.0,42459.2,69454.9,50400.7,48383.9,35294.7,0.0,550521.0,
249,0.248,17142.0,24066.9,25152.8,16925.3,23450.1,28141.4,26331.3,19688.4,29909.9,21404.6,36277.5,155209.6,38455.3,15632.9,69549.1,161627.7,141648.3,16571.8,13252.9,0.0,655131.4,
250,0.255,9615.7,17295.1,16152.7,19235.5,16913.2,21912.1,22647.2,18311.5,29240.6,19769.5,47981.4,128107.2,19127.0,14930.0,73715.1,193546.0,23016.4,23802.9,20390.2,0.0,406297.2,
251,0.378,18753.6,21382.8,25950.0,17368.0,22901.2,28187.2,22272.1,19211.7,29749.4,29977.5,33104.9,132346.7,35349.8,12811.4,53000.7,191847.4,96316.5,17419.5,16100.9,0.0,467703.5,
252,0.21,9729.7,13757.8,18064.6,15900.0,12784.9,18681.6,19436.5,15827.2,23432.3,14766.7,37691.1,162681.6,36207.0,13861.7,62189.7,136677.2,72482.1,15143.9,10954.3,0.0,509977.0,
253,0.237,27566.0,41246.9,55039.4,40855.0,40384.8,54154.7,54356.3,24106.0,53113.1,43486.3,19337.1,207455.9,92493.0,13218.0,47849.9,137550.2,148038.2,48830.1,41394.6,0.0,391625.6,
254,0.327,31976.3,40928.7,39036.9,26352.4,45868.4,53783.7,46177.5,25802.4,46664.6,49146.0,21936.6,120344.0,70156.1,16964.6,30147.1,109984.6,201408.7,31584.2,21272.8,0.0,464527.8,
255,0.628,17462.8,24348.4,28553.1,26975.9,25173.9,28004.7,29012.5,19248.0,36464.5,63047.6,24717.8,215364.9,94030.0,10484.2,48674.8,129542.7,211964.9,36122.0,32079.8,0.0,519169.4,
256,0.549,12206.3,14724.3,15844.3,14131.4,17310.4,17909.3,17352.1,20066.4,26343.6,23388.3,33728.3,146488.7,58564.3,19409.1,41262.0,90046.2,143802.2,21261.5,12338.2,0.0,461325.0,
257,0.225,18210.7,26410.1,43603.3,29283.4,34068.4,40274.1,41526.2,26415.8,53991.3,47692.3,42380.1,310086.2,121287.0,18868.7,86065.9,216183.6,299086.6,37867.8,22401.5,0.0,453017.4,
258,0.192,6928.8,13808.4,15118.4,7105.2,11947.1,14999.9,12924.8,9569.8,24152.3,18414.3,25546.0,150373.0,67975.8,8023.5,45335.2,99533.5,116972.1,17064.2,8378.8,0.0,533462.9,
259,0.222,20464.9,23936.5,19184.7,13194.6,23551.8,21367.4,17050.7,13727.5,22546.2,29883.0,10352.8,161710.5,43027.6,8464.5,38913.1,111432.0,140185.0,13131.5,10063.7,0.0,490448.2,
260,0.209,14871.2,21335.5,29092.4,30450.2,24642.2,32377.8,36115.5,25094.5,53818.5,32984.1,32450.5,243572.5,85410.5,19689.4,74835.6,165850.5,99032.1,46792.8,37564.6,0.0,604585.1,
261,0.221,18444.6,22606.5,26003.7,23086.9,29941.6,32741.6,33016.0,32529.0,55032.6,16732.0,17800.5,141066.4,39766.8,22705.7,47748.5,76346.6,59767.9,33426.0,21385.9,0.0,582277.6,
262,0.235,26807.9,21669.6,19045.6,18748.7,25550.9,24253.7,23037.2,34508.4,39512.7,70848.0,46167.9,277905.9,131982.5,28286.1,85244.8,182516.8,286807.4,34489.8,26276.3,0.0,526133.4,
263,0.18,10821.1,20777.2,23654.5,24010.8,22015.1,28681.3,32886.4,18202.9,47991.4,43146.8,14134.9,171568.2,104172.0,6187.1,35867.8,65541.4,138877.3,41265.3,31625.4,0.0,526027.6,
264,0.198,12965.2,20965.8,20103.5,11614.2,22447.6,26706.1,21137.5,12775.5,29921.5,52383.5,12376.8,89747.7,71696.4,8353.6,20220.4,47562.1,172641.0,21199.8,14216.4,0.0,523821.5,
265,0.246,15571.5,21927.1,22142.0,18949.1,26926.6,32875.5,28834.6,18741.6,48921.5,34919.1,23825.5,151775.8,66494.7,9170.5,37276.5,108622.4,164559.5,28313.2,20893.0,0.0,493942.9,That was a no self door fruition with purple particles streaming into my eyes in a milky whitish blue oplascence space
266,0.244,15258.3,14503.6,15175.4,12192.3,18236.7,19449.1,17905.5,20825.3,32499.8,30395.3,26013.4,195475.3,67955.7,16730.2,55462.5,123917.3,132361.1,24258.5,13719.6,0.0,577126.3,
267,0.22,23821.4,25723.2,29780.6,30143.6,35655.5,38259.4,39851.2,39216.2,62915.4,52674.2,28640.0,224654.7,101190.3,18294.3,63288.0,115724.3,175552.1,52636.2,31766.4,0.0,502812.3,
268,0.327,22364.2,39110.2,44101.0,26396.1,34328.4,42192.8,38769.8,18765.7,35795.6,12905.6,24086.8,108229.1,31400.7,16376.4,34107.6,93110.1,67708.8,24044.5,14817.5,0.0,597798.5,
269,0.444,41596.3,61281.9,72919.8,55949.1,51988.2,67365.5,68557.5,37289.5,57819.8,35694.3,24302.0,152341.9,70595.7,32194.3,43376.3,93599.2,127546.3,55168.1,38910.6,0.0,598329.1,
270,0.308,23959.7,28883.4,29334.3,34125.6,28402.7,31985.3,33576.7,25644.5,44192.6,39799.5,28354.1,110282.8,60044.4,18089.2,43501.5,133797.4,63224.1,46007.4,40396.0,0.0,432626.8,
271,0.542,10043.8,12081.7,17905.5,32251.1,12403.8,19354.4,23422.6,13755.7,29959.8,73083.2,17721.9,162144.0,119595.4,9401.8,45861.5,77083.3,176474.3,46562.2,58441.7,0.0,499139.6,
272,0.487,16084.3,30051.8,33305.8,26141.8,30374.4,37928.9,36799.2,21611.0,49893.4,16405.4,22101.0,123024.8,34824.9,11287.7,43184.1,113237.0,106356.3,36179.0,14862.5,0.0,406775.5,
273,0.333,23174.9,25892.4,27815.3,24809.7,25795.7,28686.6,28682.6,20775.0,36538.3,16343.7,29475.7,91837.2,29064.4,20882.5,38823.1,110205.4,55319.9,25142.0,18390.8,0.0,359687.8,
274,0.222,13696.2,13637.8,19387.2,22629.5,15858.1,19786.0,23009.5,16704.6,30369.9,14188.8,23241.2,86009.1,24321.7,17192.4,37759.9,80351.6,32839.1,26212.2,19780.8,0.0,483628.0,
275,0.177,7873.2,8478.1,7422.8,7378.1,9251.6,9192.5,8195.3,9691.3,8372.8,15355.4,12912.5,9848.5,12775.3,9908.2,11028.9,17365.2,17577.7,10158.4,13052.7,0.0,393366.7,
276,0.21,12511.8,15991.7,20044.6,17166.1,18358.0,23452.8,22298.2,13935.4,24119.7,28513.8,20768.0,89682.5,46629.7,10681.8,27820.5,97440.1,160322.4,22174.5,19174.2,0.0,331228.0,
277,0.231,15327.4,25832.0,33156.9,26486.8,28263.0,37265.8,35520.7,12198.9,24631.9,18545.1,14190.5,71187.2,26680.8,10548.2,13789.2,82176.3,121592.0,17831.3,13780.6,0.0,397365.2,
278,0.435,18318.5,21959.9,23432.1,18596.6,24887.9,26265.3,25357.5,32287.3,39623.8,31259.6,47220.6,164604.4,47363.6,24124.7,76124.0,163073.1,96117.5,27894.9,20144.7,0.0,410559.3,
279,0.256,15664.7,19092.1,23861.5,22099.1,23461.6,29760.1,32500.3,29733.8,49572.1,39371.5,29574.0,214576.3,81187.4,16936.8,70047.5,173428.8,182356.4,36088.7,20060.5,0.0,453345.9,
280,0.289,20378.8,19042.0,19141.3,19994.7,23682.0,25760.1,22441.8,23888.7,34289.1,50443.8,22543.8,159145.0,79644.2,19986.9,36045.9,79228.3,189867.1,28926.1,26627.3,0.0,486647.2,
281,0.208,14509.6,18721.8,14314.1,9642.6,20584.8,22393.2,15538.5,12387.3,21266.0,26688.0,11074.7,125241.5,49390.3,7737.7,27454.2,101875.8,139412.3,10106.4,8823.2,0.0,447557.6,
282,0.203,8657.0,11040.1,13049.8,10957.9,12992.0,15218.1,13987.8,17246.8,17470.7,34868.2,21119.0,136556.1,53311.2,10226.9,47196.5,119798.4,135685.8,14148.6,15856.5,0.0,466670.9,
283,0.218,21641.6,19380.5,17523.4,17609.4,18919.0,20515.8,18038.2,22505.9,26168.8,35280.0,25721.0,155228.2,65680.3,19950.4,54480.4,131124.0,137946.0,20819.9,18615.7,0.0,531430.7,
284,0.188,17301.7,20679.7,27861.5,24202.2,22976.3,29844.1,31322.1,24198.1,37790.0,29931.1,49148.5,192378.0,62765.2,23795.4,79802.8,164523.7,110018.2,28603.4,19570.7,0.0,469669.7,
285,0.348,20017.0,18556.3,18340.6,22739.1,19577.2,19427.2,19746.6,23947.6,23458.9,33721.4,22047.2,66974.1,28480.5,23191.9,27633.3,40226.1,45577.4,24348.0,37304.6,0.0,477112.1,
286,0.262,23042.2,29084.3,30025.1,27687.1,28538.9,32237.2,29319.2,19931.5,29819.9,33897.8,17694.8,36177.3,25480.6,13820.6,23634.2,36225.7,36357.9,28782.3,33061.0,0.0,482390.0,
287,0.283,16237.6,21615.4,20233.7,17204.9,17770.9,19503.8,19680.3,11690.4,13787.2,27737.3,17772.7,86542.6,26575.0,10422.9,38705.6,83723.1,82221.1,14197.1,19215.4,0.0,496940.1,
288,0.258,11181.0,17566.0,21059.4,14418.8,18009.7,20553.9,19964.8,12893.4,25498.3,31019.4,16538.4,150160.4,52708.9,7786.4,37254.2,114640.3,138412.9,16471.4,10509.5,0.0,576641.8,
289,0.219,17418.5,20824.0,21054.1,24884.7,16791.4,17185.5,16884.0,12464.8,14997.0,29421.7,13649.9,67458.6,37735.5,10214.0,21712.0,43919.8,58461.1,18387.3,31827.6,0.0,436153.1,
290,0.286,14293.8,22160.4,24226.2,22155.4,20423.8,27927.5,25731.8,15432.0,29692.0,12403.0,6632.6,63501.2,26556.5,11303.7,14539.6,32593.9,61315.6,20035.5,10832.8,0.0,442472.8,
291,0.293,22659.0,32837.7,34701.4,26178.2,36752.0,44898.4,41039.8,24618.2,50008.0,15773.1,8498.8,121240.8,48374.7,9743.5,21537.1,34259.0,85594.1,37119.5,14262.3,0.0,389156.1,
292,0.217,18954.0,23687.9,23740.7,15626.8,31426.0,30787.2,28657.3,22653.5,37610.6,25869.7,13754.1,126193.8,50140.4,15072.9,28352.6,53252.7,122540.0,20921.4,13476.7,0.0,462082.2,
293,0.175,8863.3,10198.6,11827.1,10986.3,12692.9,14423.7,12849.9,16206.3,18384.3,51659.9,18501.8,115684.2,76088.4,11839.6,26213.5,58478.9,161516.2,16427.5,18821.6,0.0,391242.7,
294,0.204,10799.9,14452.3,18956.4,16647.7,17248.5,21894.9,20135.6,18123.6,30199.2,38298.7,15788.7,155476.3,70893.3,13554.2,32083.5,60317.7,209786.5,22875.3,19138.1,0.0,472074.6,
295,0.214,15608.9,25219.6,35462.8,30539.2,25767.9,34197.4,35079.9,22485.6,43715.1,30031.9,19244.6,187827.4,75985.8,10947.8,55326.8,133829.2,157666.6,34930.4,22699.7,0.0,416538.3,
296,0.46,19219.1,26534.5,39753.6,42833.5,27900.7,36165.5,40926.6,24184.6,51893.1,34662.4,25367.8,207223.3,81590.5,14616.0,52371.4,117055.2,131744.2,48040.9,37878.1,0.0,419277.3,
297,0.239,21655.5,33540.5,37811.9,29059.1,33051.0,42316.9,38870.5,14674.8,28002.6,15164.6,10679.1,124215.1,28581.0,8667.8,33318.0,111228.0,117429.9,22609.5,17371.5,0.0,376191.7,
298,0.363,26384.5,29129.2,32155.6,26818.2,26690.5,28393.0,26388.8,20211.9,22209.7,25109.8,22594.6,104013.2,38983.9,19703.5,38268.0,116581.8,109379.6,19540.3,24276.0,0.0,458511.9,
299,0.245,18465.9,20748.3,19241.6,17814.8,18508.4,19581.3,18601.3,14756.5,20103.4,11935.7,20138.2,83851.4,26670.3,14087.4,30494.2,73543.1,68787.1,17099.6,18082.1,0.0,467617.8,settling down into a somewhat chunky sort of jittery but quiet afterglow in the body.
300,0.284,12567.2,14156.8,24312.6,28454.7,15005.5,18559.1,24630.4,19130.1,31293.6,64718.0,24334.1,171617.2,97852.6,16754.7,44722.9,85093.3,156489.4,38014.1,39269.8,0.0,465099.1,
301,0.285,20871.7,24643.2,30226.5,28233.0,30203.1,33354.5,30440.4,18980.7,29750.3,58435.7,19363.9,76483.7,61698.6,15057.9,20448.7,82376.3,161090.0,27390.7,34360.0,0.0,395198.4,
302,0.373,18939.6,29814.1,32363.6,28675.2,28606.0,35536.3,33579.3,18922.9,41196.3,28239.3,15040.0,94218.5,49478.3,11561.8,24111.4,52222.5,55932.5,35791.4,28111.3,0.0,455304.1,
303,0.265,13921.0,15885.9,17692.4,18418.9,15437.2,17669.9,19360.8,12151.8,14839.0,16980.4,21921.2,73387.9,26470.3,11455.1,33617.8,91790.8,63350.9,19329.5,14973.3,0.0,407560.7,
304,0.281,14707.2,24531.5,28724.0,19277.4,21178.1,25538.9,27514.4,15262.7,22018.8,15212.5,26402.0,109446.4,30773.9,13070.3,45517.7,127991.9,103883.3,17589.8,15311.1,0.0,444419.8,
305,0.615,27808.0,34647.1,36336.7,29938.7,39633.4,41856.5,40127.8,32178.0,47244.8,28408.6,19184.0,116446.8,48912.0,19596.9,39247.4,73507.9,101847.5,36590.7,24308.4,0.0,484133.2,
306,0.757,16382.8,16529.8,15952.7,12956.1,16979.2,18491.6,17891.2,19872.8,30084.1,25679.9,15804.2,99511.2,50904.1,12979.2,26652.0,29541.0,104006.2,20564.5,14412.5,0.0,468841.9,
307,0.232,10348.8,13660.4,17101.0,20007.3,14727.2,19090.3,22107.9,9831.4,30800.2,100643.2,6896.5,129937.1,123439.8,9285.1,19735.8,38800.3,265602.3,38241.3,43433.7,0.0,510189.3,
308,0.185,9166.9,7494.3,7273.1,8631.2,7123.2,6842.8,7433.7,6529.0,7841.2,43707.9,15829.9,57428.5,39832.3,10814.4,16486.9,99560.1,143054.7,9831.5,17910.4,0.0,556133.4,
309,0.208,5999.4,4708.1,3930.6,5850.2,5941.1,5780.5,5131.2,6652.7,9647.0,37525.4,9743.2,78717.6,48595.7,7175.6,19447.9,53604.5,155620.6,11724.0,16817.9,0.0,485331.5,
310,0.237,9593.9,16412.5,25754.2,16833.7,15093.8,21584.7,22814.8,8243.9,15800.4,12417.1,8571.7,84087.9,28374.2,5844.2,14846.2,52583.3,65018.0,15485.2,11573.5,0.0,459058.8,
311,0.269,8207.2,10334.1,11089.2,11657.2,10533.7,11714.8,11294.5,13134.1,13175.1,13604.1,17287.2,137709.3,26317.3,8405.8,42766.4,62692.8,36680.5,7369.3,10024.8,0.0,514715.2,
312,0.213,20499.6,29238.8,30112.5,25225.1,27133.6,33689.2,32290.6,13928.0,21763.7,15058.2,18700.8,137404.7,29531.9,10244.0,36013.2,130025.5,60919.3,22318.9,21162.1,0.0,468170.1,
313,0.198,19342.0,26704.6,30563.4,21468.4,32812.2,38493.4,33608.6,25757.3,42563.1,25820.7,11893.9,49699.7,34090.3,12051.2,19808.5,33083.3,69512.6,22556.9,16421.1,0.0,481482.9,
314,0.171,7487.7,9472.7,8512.2,8875.4,9167.4,8492.1,8829.9,13667.6,15780.5,16808.8,10983.0,84865.3,26486.0,11223.2,26099.4,25627.9,61604.8,11649.7,8765.8,0.0,423251.4,
315,0.249,10531.7,13374.5,14512.5,12459.2,14890.0,15584.0,16168.9,13159.6,24473.3,16259.4,20684.2,43742.3,22678.0,11461.5,23904.1,59238.2,15304.9,19966.1,17942.2,0.0,405988.3,
316,0.174,7702.0,8692.6,10496.7,17779.7,11132.5,12856.7,14662.9,9958.0,20511.2,41575.2,21353.2,127302.4,59684.2,9904.8,37397.7,93561.5,105480.0,26553.3,28709.6,0.0,401864.1,
317,0.387,18190.4,36024.2,42488.2,41920.7,37778.5,50607.4,48301.6,26150.2,54939.0,33731.1,16968.4,39086.2,37804.3,11163.5,17335.3,23638.4,28653.5,46053.1,40780.9,0.0,349249.8,
318,0.318,10593.9,17938.7,23035.0,17376.8,18921.7,25189.1,22826.2,16731.9,23528.9,21856.2,24804.2,70492.1,26689.8,7127.6,30856.9,74010.7,86398.2,14617.0,25961.7,0.0,344748.6,
319,0.287,12485.8,17440.4,21534.9,18130.9,17841.2,24338.5,24809.5,11314.7,24017.1,15603.0,7308.4,61922.5,22071.8,8392.9,12180.7,61675.9,77919.2,17962.2,8444.9,0.0,383487.7,
320,0.178,12166.7,13148.4,17446.3,17275.1,16983.1,20929.6,19735.6,20182.4,25467.4,31846.9,20657.3,59296.2,32691.3,19144.5,23303.1,50393.3,67970.2,23354.4,25846.0,0.0,379515.1,
321,0.332,27847.0,35017.0,39649.8,39330.6,37644.8,42910.6,47341.0,32974.6,48960.1,32007.9,31029.7,45688.7,34262.8,30827.7,30844.5,29539.3,31861.0,42409.1,36330.2,0.0,480198.5,
322,0.157,4983.4,5393.5,8804.2,12156.6,5619.6,7284.7,9102.4,8335.1,10832.3,18628.6,15360.6,37010.1,21918.6,9716.8,19299.9,42701.8,29454.4,13831.5,12377.8,0.0,498997.5,
323,0.506,12223.8,17082.0,19888.0,18758.5,17911.2,21079.3,20342.7,12721.4,22688.0,49352.6,16269.4,103065.1,52066.6,9904.7,22783.9,122669.7,156281.4,21061.0,21195.6,0.0,532609.3,
324,0.169,11282.3,11751.7,13528.2,14272.1,15311.0,16927.0,17948.9,18272.0,27805.3,22722.3,16699.5,106328.1,39203.3,13495.2,34134.9,67794.7,105577.1,20278.6,18972.0,0.0,543044.0,
325,0.199,12122.7,11183.9,13415.4,17567.3,11373.1,13554.6,15501.1,9968.7,13197.4,15721.0,9215.9,36622.9,19198.7,10414.6,12590.0,15211.0,22514.4,15042.9,20034.3,0.0,564699.5,
326,0.231,12671.6,17030.3,17858.6,16169.4,19419.7,19845.7,19114.5,15363.5,23178.8,17773.8,8101.7,26884.5,15696.0,10448.3,16443.8,17424.1,15999.6,19635.5,19239.1,0.0,432295.7,
327,0.252,18692.6,23462.0,25243.1,23817.3,28727.7,31324.5,30740.2,22979.0,38566.6,22766.8,17534.9,78713.6,28578.6,14439.7,35617.6,55247.2,16349.6,30360.1,25392.5,0.0,487216.4,
328,0.514,19240.1,21216.0,23631.8,23149.0,22554.9,25894.4,26081.4,20783.5,22036.3,29119.7,23641.2,43917.0,32797.3,21161.4,26714.9,32916.2,30030.6,27338.7,32617.4,0.0,424861.5,
329,0.225,13720.6,17319.8,20573.3,23698.6,18889.1,21231.3,20992.3,17328.5,22221.7,28670.5,20001.7,60569.5,26256.1,14384.9,25166.7,87338.8,48024.9,22177.3,26110.6,0.0,531853.0,
330,0.227,22954.9,22166.9,23582.3,20714.0,27395.2,29071.7,28142.5,32398.9,43503.1,26179.3,28580.6,143194.5,50263.2,23729.8,55707.3,53841.5,65461.3,33743.4,23213.9,0.0,496948.0,
331,0.236,24983.1,32014.8,32712.8,27851.8,31744.3,36541.4,35158.0,29312.3,49753.0,30953.9,25844.2,198770.8,67533.2,17665.7,57171.2,114407.1,97053.5,41349.0,31874.0,0.0,342906.2,
332,0.344,13437.1,16627.3,17733.1,15939.8,16187.7,18829.6,18804.3,23284.3,33478.5,18205.5,16811.0,153723.5,57773.2,13411.3,44803.8,101397.1,59317.2,26474.8,19852.3,0.0,394562.0,
333,0.366,10882.9,16009.0,24282.6,24402.4,16262.8,20221.6,22276.0,15115.7,22007.1,26904.7,15028.1,42571.4,31531.7,12141.0,21052.9,27736.1,45850.3,23228.6,23860.3,0.0,393644.2,undulating peaceful body in a milky opalescent space with whitish purple pink particles streaming
334,0.307,7343.2,10608.5,12919.5,13242.6,11765.8,13700.9,14578.2,11797.5,17978.6,13380.6,10625.1,37575.6,19519.4,8041.6,16267.4,26197.5,27707.4,15355.8,14486.1,0.0,295101.1,
335,0.846,16781.5,32981.8,45138.8,44628.0,29860.7,39802.9,48610.4,23700.1,46296.2,50602.3,30900.4,73097.4,54444.4,13152.2,43529.7,114887.4,74109.2,55639.6,59017.7,0.0,339935.9,
336,0.452,18080.5,14417.1,17070.0,23114.8,16979.8,18055.8,18013.9,21859.0,27187.9,23189.4,16179.9,41789.7,29954.3,18770.0,28150.1,24865.5,25790.8,23677.1,25123.4,0.0,356569.7,
337,0.421,14149.6,19498.9,22579.3,23314.7,17736.8,20698.9,23711.9,17278.3,26287.8,24362.5,9807.2,36396.6,35431.9,8669.0,15612.8,16251.1,32867.4,27061.0,26677.6,0.0,428436.9,
338,0.451,14258.6,21341.9,24710.8,30409.3,19702.5,22430.6,27118.6,18726.3,24656.3,40668.6,14309.0,51224.4,43810.9,12129.8,25045.3,35891.7,41759.6,36070.0,33438.3,0.0,383420.2,
339,0.606,13920.9,14432.0,17946.4,20791.7,16689.4,16712.9,16818.3,16510.0,20511.4,23877.2,13637.6,43851.1,26403.2,11803.6,18224.4,37800.6,19124.7,23371.3,22770.4,0.0,420493.0,
340,0.211,10464.0,14292.4,17119.4,15891.8,16252.2,18856.7,19534.9,17631.2,23277.8,8329.7,7930.1,33191.0,17266.6,9098.3,15782.5,15024.0,12149.4,18565.3,16659.0,0.0,397351.4,
341,0.22,12131.2,17127.5,17763.3,17491.4,16128.6,18752.4,18626.5,12843.5,17747.9,14417.6,12621.7,33717.1,14250.1,10057.8,15591.9,46457.1,26745.8,15193.8,17169.8,0.0,365775.8,
342,0.28,29566.6,33081.8,36710.3,32809.8,33483.4,36609.6,37253.3,22827.8,28830.6,34082.4,35761.0,72239.6,26130.9,25001.9,33637.1,127358.1,87786.1,25710.6,29131.1,0.0,481573.1,
343,0.19,10374.6,15973.5,16000.0,14469.4,17216.2,19407.0,19117.2,14869.4,31064.8,15648.7,23536.6,159410.7,47983.4,9637.6,47051.4,149200.5,53821.5,25311.0,12427.2,0.0,444845.1,
344,0.217,8984.8,17124.5,22556.1,20381.4,17576.8,20899.1,27052.7,13282.5,26971.8,34628.8,10058.7,97565.6,59893.6,7307.9,22289.3,44862.2,64641.1,31371.0,23676.7,0.0,429095.1,
345,0.213,12930.2,15375.5,18955.4,22845.7,16860.3,20306.8,22523.8,15241.1,20237.7,26511.7,14066.2,36850.5,29963.9,11581.0,17375.8,21823.2,24442.6,22159.7,30023.7,0.0,420554.2,
346,0.219,15122.5,22129.5,23449.4,19356.7,22445.4,25296.4,23636.0,16268.4,22879.0,22156.9,12653.2,34421.8,25533.9,10104.8,18228.4,26510.1,39291.8,18578.9,19069.2,0.0,373464.8,
347,0.213,5946.9,6813.9,7314.5,6539.8,6755.5,8040.3,8374.1,6779.0,6688.4,7978.8,7943.5,9398.0,8121.5,7578.2,5933.5,9604.7,11270.7,7291.2,10037.3,0.0,313448.7,
348,0.194,8108.9,10208.5,13266.8,11296.6,12017.7,12653.4,12634.4,10849.4,14060.0,13628.1,8556.7,15282.8,12669.0,9026.4,9030.1,11966.0,13660.2,11005.8,17287.2,0.0,389619.3,
349,0.417,25710.9,27100.1,22401.1,23474.4,33003.5,33435.4,31969.4,34209.9,40604.5,29703.5,22304.3,41745.1,35056.7,29645.1,32473.7,28763.7,32932.5,33679.0,31039.6,0.0,363512.1,
350,0.199,13953.0,18238.1,18517.8,15877.8,18789.3,19193.6,17821.2,20290.2,21987.0,20461.5,17031.1,41679.5,21828.2,14934.9,23329.8,28924.1,23387.6,15445.7,20343.1,0.0,358311.8,
351,0.221,10761.6,12160.3,12632.3,14183.4,11657.0,11692.1,12423.8,12313.3,13646.1,33514.0,13305.2,33786.7,27482.0,9531.6,17688.2,26503.9,36627.8,17474.9,26536.5,0.0,317994.5,
352,0.205,8534.8,9441.5,10435.7,8344.3,11448.1,12613.5,12091.5,7670.5,11550.3,7933.7,8602.8,8095.7,10024.3,8490.2,5649.2,9673.5,13404.8,11236.5,4822.0,0.0,353376.7,
353,0.331,23742.1,29783.4,34421.5,27417.0,32569.8,36294.7,33989.0,19783.5,32449.1,17243.0,7516.6,29425.7,23266.8,14599.7,9717.0,21939.2,30412.2,26299.7,18749.2,0.0,256331.6,
354,0.165,8120.6,7000.4,8668.9,10750.0,7590.5,8034.0,8925.9,8641.8,11758.2,17258.3,8667.1,34669.0,22321.2,6980.0,16304.9,37862.1,34082.1,12840.0,16635.2,0.0,317016.7,
355,0.182,5218.3,7395.2,9833.8,11713.1,8713.7,10571.6,11566.8,8644.1,13056.9,13003.8,4684.8,10876.4,12114.9,5877.5,8087.5,7957.0,10569.8,11190.9,15498.9,0.0,273558.4,
356,0.165,8318.5,8493.6,10533.9,10536.3,10163.9,11351.4,9983.3,9143.9,8772.5,7833.5,11398.9,13453.0,8910.7,8815.6,11804.4,20117.8,13525.9,8217.2,10144.0,0.0,278525.2,
357,0.329,18937.4,19813.1,18594.4,17514.7,23263.4,21742.9,19850.4,21593.2,26777.3,21102.4,17315.0,25560.9,20438.9,18328.3,20578.6,25679.5,24693.3,22410.4,16204.3,0.0,311064.1,
358,0.153,3011.5,4425.7,4694.4,4289.1,3299.7,3966.1,4423.9,4479.5,5793.6,7607.2,4740.8,9406.2,8767.5,3074.0,4665.5,6710.7,9534.4,5771.7,5773.2,0.0,305047.1,
359,0.161,8832.1,9759.0,9042.8,7761.4,9254.9,9967.6,9423.3,13849.0,11658.7,6185.9,17784.8,17656.7,5258.5,12978.8,21141.4,52926.7,7258.2,5939.3,9994.5,0.0,296369.0,
360,0.231,11293.6,11471.8,13536.5,9439.5,15633.1,15184.1,14267.1,13168.3,16796.7,9389.8,10372.4,40087.0,13313.5,10876.3,15231.4,38411.4,20551.2,12164.9,12250.5,0.0,343225.1,
361,0.232,14763.1,15114.1,9801.1,7712.6,17752.4,15156.4,10844.6,14030.4,15289.3,11392.4,10549.3,11439.1,12698.0,10538.7,11446.3,9055.4,12103.6,10546.5,7557.8,0.0,290429.3,
362,0.2,20467.8,20038.9,23937.2,31049.3,22949.1,24673.1,27637.6,23565.4,28585.8,37460.4,19606.2,28289.6,28392.0,21280.2,23351.3,23940.6,30532.5,31913.7,41145.3,0.0,328701.7,
363,0.185,13964.8,14789.6,13787.2,9743.3,16252.6,17473.8,17277.3,13639.2,20425.8,35341.7,15823.5,57896.9,43304.1,11303.4,25381.3,64781.3,122063.9,17942.5,11580.5,0.0,388294.4,
364,0.196,10740.9,13044.6,15487.8,14934.1,12528.9,16505.7,15567.1,15517.8,26830.2,47355.4,18635.2,167413.4,83615.3,9385.1,42108.3,96368.2,151013.6,26501.9,21711.6,0.0,335369.1,
365,0.487,17603.5,22119.7,22637.9,17796.4,28097.8,31334.1,26083.4,22911.7,39189.9,24485.3,26786.0,191273.2,61198.1,14447.2,47155.9,90709.0,115051.9,25566.5,18433.3,0.0,411374.4,
366,0.18,13989.1,18810.6,25351.8,36029.8,23849.9,30982.5,37026.3,19787.0,38225.9,41546.2,13439.1,128178.4,61306.5,9199.6,37843.8,73011.4,39028.1,46415.6,42121.3,0.0,346696.7,
367,0.167,14202.9,17689.1,19251.6,16572.8,17816.2,22877.2,22251.3,15402.9,21733.1,15412.4,12695.2,13313.8,14456.4,13655.0,13467.8,19934.1,9753.7,19519.0,23646.2,0.0,400929.7,
368,0.208,16190.9,19893.1,25360.6,26788.1,20756.7,22039.2,24050.2,23543.2,30504.9,23151.3,13817.9,38440.5,28685.7,13800.3,23833.6,22933.8,25398.9,25879.9,32112.1,0.0,402287.2,
369,0.17,11135.4,13160.2,13236.8,9213.2,11165.3,12835.3,11213.4,8471.3,12642.5,12512.1,12213.1,34838.8,13688.7,11666.9,13013.6,21912.6,15112.4,9452.4,12337.5,0.0,392665.6,
370,0.198,12867.3,12889.8,14060.0,16113.7,15133.0,16422.7,15982.7,16760.6,18519.0,15092.9,15736.0,39380.8,22836.2,12975.3,25755.0,40174.1,27700.3,21280.2,21760.9,0.0,376588.3,
371,0.137,9413.0,12233.3,15922.5,18869.8,14362.6,18570.3,19324.6,15182.9,26909.5,24721.3,13173.8,102623.7,40999.7,9943.3,24714.4,57479.7,74383.5,24112.2,26728.9,0.0,306389.2,
372,0.213,20006.9,22010.5,24098.1,21186.3,26350.9,28308.5,28590.1,23094.0,36735.5,19615.7,12174.1,83645.5,44223.7,15998.0,24108.3,40273.5,60286.2,30547.7,25152.2,0.0,459921.0,
373,0.239,13662.1,18681.5,21967.3,15288.5,17513.9,21267.1,20884.2,13024.1,19500.1,26050.5,15700.7,49192.2,24650.1,11804.4,19025.1,53008.5,26393.2,18584.8,18204.4,0.0,335358.1,
374,0.277,25880.6,40875.5,45596.8,35734.3,42934.2,50240.4,50513.1,34222.4,52534.1,25012.4,58204.1,163904.9,48567.0,22826.1,72497.4,194158.2,134310.4,41116.6,30117.8,0.0,425188.6,
375,0.334,24996.2,37987.3,47318.3,42785.3,36715.0,46816.2,51444.8,26762.1,48946.4,27311.9,13829.3,106325.9,45077.9,15336.6,30332.5,81678.9,66227.9,41286.1,32925.1,0.0,483042.5,milky opalescence and stream particles in a tranquil undulating body.
376,0.27,4520.5,4754.5,7456.5,6510.9,4637.1,6496.0,6845.2,4203.5,6729.0,7626.2,4341.9,12061.8,9120.2,4364.8,4196.9,5314.0,6522.5,6994.9,10144.5,0.0,278484.1,
377,0.264,6415.6,8962.3,13267.4,10109.2,6930.0,11074.3,11358.8,7059.1,14541.2,15890.8,10686.4,79071.4,32294.5,5780.9,16951.7,65883.4,88732.1,10603.8,9693.2,0.0,303750.0,
378,0.376,26581.9,30010.9,28001.6,21531.0,32380.5,28889.4,26753.5,24660.7,33997.7,41746.7,26400.8,218475.8,86156.6,17624.7,52987.3,175159.3,264027.3,27853.8,17697.3,0.0,277171.6,
379,0.493,35826.3,51196.9,58497.5,47734.1,50226.0,57607.0,53141.2,33681.7,57000.0,32166.1,36523.9,205634.0,65583.9,19876.4,63981.4,182845.6,142549.0,43382.3,39861.7,0.0,290396.8,
380,0.243,7250.9,13420.6,20545.3,23287.3,12961.5,17503.7,19380.5,9799.0,25912.6,65899.0,10040.3,92002.4,72644.2,5791.5,17240.1,37714.2,195236.3,29636.9,32743.3,0.0,353033.8,
381,0.248,18714.7,20022.7,24403.7,24821.8,23490.1,26675.9,25154.2,20809.7,28553.5,28840.5,8930.7,33346.5,32944.0,14705.4,15474.1,23858.8,48890.1,29608.9,26030.5,0.0,344253.2,
382,0.209,8674.2,10142.4,8692.6,8332.0,11268.3,11036.9,10376.2,7236.4,9779.8,9877.4,11917.6,7470.5,9083.9,10672.2,8577.4,10818.6,8272.8,10112.8,11254.6,0.0,310949.1,
383,0.343,16905.0,21922.3,25859.4,24164.1,24214.0,28815.4,27658.8,20927.7,30178.8,30935.9,17390.6,39226.5,30146.7,13909.9,24600.8,30006.7,43580.3,30781.7,27260.2,0.0,339007.7,
384,0.205,8841.1,9427.0,9736.8,9713.8,10024.0,10830.8,10803.3,9984.5,15308.2,35624.6,13310.2,100312.5,43520.7,9546.8,20967.6,58396.5,105463.7,15397.7,20497.6,0.0,385644.0,
385,0.176,6813.1,10697.0,15158.7,18816.6,11169.6,14762.4,16346.2,12213.9,22914.1,36678.8,15562.4,110533.6,46441.6,8071.4,39958.1,103533.2,103415.4,23585.4,29697.5,0.0,434569.3,
386,0.225,14003.8,18219.0,26346.5,37579.4,19950.1,24540.7,31052.8,20473.8,32378.5,57953.1,15194.0,48080.3,48485.0,16775.6,24789.7,26567.1,84523.0,40361.2,46046.4,0.0,507787.0,
387,0.228,12985.2,16603.7,16182.8,17539.5,15559.2,17604.3,19120.1,19151.5,23710.4,32607.4,17206.2,82267.6,43439.6,14870.9,30658.1,64790.0,86111.5,24166.5,23079.4,0.0,396160.5,
388,0.173,5704.6,8217.7,7376.5,5245.2,9188.5,11505.8,8869.0,8629.4,18955.1,39822.6,24014.1,98000.7,47280.6,11002.5,30825.4,112571.4,142357.4,11779.9,13115.0,0.0,383016.7,
389,0.209,13533.5,13354.4,16575.9,14610.8,14668.9,16056.4,15545.7,16948.0,20263.8,25846.3,12763.9,98460.4,40834.6,16209.3,31125.8,72285.6,98122.7,19085.6,15249.0,0.0,431465.5,
390,0.245,20761.7,36045.8,40569.1,35375.4,36368.0,46190.7,46465.4,32585.2,69403.3,42339.5,15058.2,205669.6,118692.5,15878.0,54892.9,78058.0,174242.8,63240.7,45214.7,0.0,472260.5,
391,0.194,17709.2,21343.1,25081.8,29045.7,19832.4,23424.2,29218.2,19557.6,33004.5,43123.5,31666.5,176023.9,75878.2,20936.4,63117.0,126937.0,97479.9,36139.1,30349.7,0.0,446459.2,
392,0.377,19288.1,22718.7,34090.2,32281.3,23350.1,31454.1,34952.1,23102.1,45273.3,64825.6,19271.3,217796.1,135346.7,13467.3,45194.8,80611.2,217578.3,51507.2,47113.5,0.0,314671.8,
393,0.261,21790.2,25708.8,28179.2,26206.8,27312.5,32536.7,32217.7,21595.0,39200.0,33477.3,18839.7,101872.6,79487.8,13541.3,23568.1,55932.8,79562.9,39284.6,24182.1,0.0,335228.4,
394,0.209,13880.5,18410.8,16925.0,13079.3,21440.4,25747.7,24029.4,12738.4,31692.5,48462.2,12269.4,147059.5,102519.8,6576.4,22609.6,88020.7,184544.2,32050.7,18859.3,0.0,342839.9,
395,0.205,16930.3,20143.8,17977.9,18578.7,19783.2,23213.0,21424.1,14829.8,28347.5,39668.7,6917.9,202430.7,93152.1,9100.6,25322.4,58427.0,169055.6,33055.4,27276.8,0.0,339656.9,
396,0.187,12173.3,17377.0,19919.9,18618.1,17223.4,20949.4,21572.4,13529.0,27537.6,22731.2,18988.0,104876.8,40188.4,7119.5,34531.7,77296.0,85560.6,20729.7,19285.2,0.0,289093.5,
397,0.307,22842.3,30270.6,32226.8,36334.7,29351.7,31217.4,31228.9,26103.8,31225.4,33881.3,34837.7,54628.9,25473.3,27084.9,34793.9,64900.4,26111.5,30526.6,41321.1,0.0,342626.3,
398,0.454,12662.2,17946.9,27526.1,35525.7,19168.9,28746.9,36780.2,21109.0,49569.5,61511.8,20211.8,163918.7,105593.4,11727.8,44349.2,98097.5,115111.6,55719.9,43399.9,0.0,350671.4,
399,0.247,13132.0,18229.3,18215.5,16167.0,19654.1,24226.0,21739.0,21060.4,42018.7,70646.7,20910.3,235944.0,127658.4,10932.5,55857.1,129739.9,228546.0,35721.7,35873.4,0.0,392029.1,
400,0.28,34541.4,42651.1,40063.9,33469.5,52236.0,54783.8,52510.2,39161.7,76302.7,35186.3,12180.4,139402.1,73313.7,14870.5,34625.7,66144.0,84636.4,57521.6,37424.0,0.0,353660.4,
401,0.186,9192.9,11734.8,11497.7,10017.2,11057.3,11740.5,9921.8,10319.0,18216.7,20087.6,9673.4,60839.7,21855.1,8571.5,13232.3,35845.5,41249.3,11805.7,14743.6,0.0,404452.7,
402,0.199,14338.5,20340.3,22970.4,20157.4,24387.6,29925.4,29261.5,19685.8,34392.9,30138.0,21902.7,50865.2,29290.3,13766.9,30526.6,81122.5,26999.0,30550.3,26247.8,0.0,394788.2,
403,0.193,13481.1,14938.1,17963.4,16751.9,19175.2,18667.8,18504.9,20443.5,33107.2,20494.5,28861.2,132262.4,55342.8,17697.1,38284.3,104617.8,56127.2,25640.3,19759.7,0.0,555282.7,
404,0.216,18586.8,23319.7,20150.4,16259.8,28319.6,27754.4,23856.5,26046.9,32241.0,31259.1,30671.9,109909.4,52236.0,24766.3,44451.6,100238.0,110817.3,24264.9,18442.8,0.0,446009.0,
405,0.181,7640.1,12449.6,14639.1,14832.7,12112.1,17225.9,15969.0,8381.4,18284.2,34796.5,12415.5,48816.9,34828.2,5845.8,23555.2,62983.5,42284.2,21232.4,32515.7,0.0,476869.3,
406,0.234,9260.7,9923.7,11186.4,10254.5,10933.0,12309.8,9922.6,13122.3,17737.2,23410.1,19639.2,72821.8,27774.3,8496.0,28682.8,67905.9,31343.3,15267.8,15124.9,0.0,374544.0,
407,0.262,12305.2,10414.9,9016.2,8307.5,9853.4,9893.2,9877.3,13065.2,12991.8,9603.0,16130.0,22139.8,14095.3,19208.2,13310.6,17200.3,15895.1,12142.5,9186.9,0.0,444612.6,
408,0.214,18539.4,22662.7,27982.5,32569.1,22411.9,25929.7,27237.7,21673.3,24212.2,34640.6,14088.5,28586.4,30600.4,18353.6,20846.9,16412.4,28274.4,25369.3,33843.8,0.0,334685.1,
409,0.197,8064.0,9416.9,8939.4,9884.8,10673.0,10570.4,9679.5,9856.8,11198.2,9432.2,5598.4,7686.4,8949.2,8620.2,8826.0,6035.4,7611.0,10094.7,12352.7,0.0,363483.3,
410,0.218,13511.8,16935.2,19892.7,17822.0,15190.3,20179.4,18101.2,12755.2,16366.1,14709.0,12719.6,24777.6,17134.0,11276.0,15162.6,23864.0,18342.4,14888.0,14241.9,0.0,380632.8,
411,0.192,6503.5,7843.2,11091.7,13421.0,8418.4,9682.2,11435.5,10715.0,15767.2,18346.7,10596.7,37415.9,27342.6,7988.6,15823.3,18376.8,30050.4,19377.8,17265.8,0.0,314093.0,
412,0.144,7180.3,6618.7,5737.3,4952.8,5862.8,5160.1,5432.7,6817.7,7495.1,9532.3,4364.5,12656.1,9687.9,5338.1,7608.5,13396.0,15649.4,5681.1,8624.2,0.0,265959.9,
413,0.161,6590.9,7365.0,7899.3,7859.4,7906.3,9693.2,8497.4,9415.1,10879.3,12416.8,5154.1,12838.2,13506.1,6102.6,9496.0,7032.1,7782.7,12025.0,14083.3,0.0,268988.7,
414,0.229,15878.9,17095.8,18535.8,20199.2,17550.6,19040.1,20323.0,14973.1,18701.4,17736.6,15045.8,17138.7,19399.5,14164.4,14318.7,19768.2,18515.5,18776.3,20027.4,0.0,233885.1,
415,0.323,16344.5,15318.4,16456.6,15829.1,15127.0,14824.1,14444.4,16831.0,17594.7,18063.0,16202.3,19375.3,16253.9,16473.5,14841.9,15967.9,18993.4,13173.2,18458.1,0.0,294179.0,
416,0.17,8772.2,10405.3,10859.8,11176.8,10955.0,12145.9,11594.0,10751.7,11960.0,9614.4,11063.9,9444.0,7886.9,11534.0,9824.9,14058.6,10740.6,8834.2,14456.9,0.0,318047.4,
417,0.217,7071.7,9604.1,11706.3,12313.3,9997.8,12339.6,11187.7,10515.6,14135.9,14891.5,7265.8,15438.4,14153.1,7246.5,12126.4,13299.5,11977.7,13912.8,18605.9,0.0,290507.0,
418,0.294,7648.1,6911.7,6831.5,9175.5,6746.4,6601.1,7083.0,11457.1,10143.6,11603.3,11109.9,14039.7,12619.1,11573.7,14649.6,13477.6,11124.0,10540.3,11168.2,0.0,375779.1,
419,0.223,15583.1,13764.8,15865.3,18117.4,16277.6,17244.7,17496.5,19280.4,19967.5,14996.0,15328.6,19691.3,22132.5,18416.6,18311.5,17095.1,19908.8,20330.5,16172.7,0.0,373913.7,
420,0.584,20337.1,18572.7,19175.6,18598.7,19293.5,21291.9,19213.5,18643.6,18069.0,24740.6,20266.1,20605.4,22899.1,21253.4,20885.3,24491.4,28004.3,21334.5,22259.5,0.0,412022.4,streaming whitish purple particles in a bluish-  whitish-  opalescent space. 
421,0.564,8329.7,12783.7,11260.9,9063.2,8849.9,8963.0,8556.5,8652.9,8117.7,7680.5,8064.3,6904.0,6681.5,7993.0,9907.6,6434.3,8019.5,7572.4,7851.6,0.0,442365.8,
422,0.371,7907.7,9581.2,10816.0,9878.9,10795.5,10691.5,10486.7,8936.8,10389.3,7192.5,6928.1,9988.5,10239.6,7246.7,9311.3,8282.7,7671.9,8200.5,9550.4,0.0,378025.7,
423,0.389,9692.1,14394.9,16166.9,14737.2,12447.3,13858.8,13916.6,8860.2,12875.2,10140.2,6752.8,17336.0,11690.3,7747.2,9661.7,10636.6,16065.3,11423.2,12377.6,0.0,372854.7,
424,0.295,11363.7,12930.2,15439.4,17270.3,13389.8,14267.2,16357.4,11898.3,15677.0,17040.8,12036.2,11161.8,17701.4,14851.9,11750.7,10175.7,15495.5,17927.5,17445.2,0.0,320825.3,
425,0.342,11683.6,14325.0,15443.0,17668.1,14354.5,14967.8,17069.7,8542.1,14671.0,19932.0,5712.5,14453.5,14485.0,8135.6,7614.8,14430.4,17096.5,17292.9,21394.0,0.0,339755.2,
426,0.238,11840.7,15769.7,17951.4,17311.9,15289.1,15275.0,16903.4,12828.4,16853.1,14031.7,12597.8,36024.7,18699.7,10271.1,17138.7,33596.6,30594.8,18763.8,17432.3,0.0,391260.3,
427,0.191,9432.5,13808.2,14907.8,12947.7,13387.6,16258.6,16420.8,13678.5,15791.5,14355.9,11691.0,17272.8,14683.1,9742.9,13982.4,17551.7,18029.1,14729.9,15862.8,0.0,349648.5,
428,0.193,10163.8,10183.6,9436.2,10411.2,12074.6,11462.9,10746.5,10004.4,12985.3,15774.6,10777.0,13198.0,11782.4,12174.7,11383.9,10672.4,13250.0,11033.4,17714.7,0.0,285960.4,
429,0.249,15105.7,15179.3,17594.1,23073.1,16967.3,20740.6,18851.4,15169.2,17666.7,21217.8,14588.1,16133.4,22096.1,15761.4,14476.6,14430.0,24599.7,22833.4,25313.2,0.0,310193.1,
430,0.219,17183.5,17057.6,17637.9,15347.4,20513.3,19975.7,16870.7,20894.3,21169.8,13197.3,17359.9,24045.3,15997.1,20346.9,23726.6,22198.3,20815.1,14915.2,15129.4,0.0,327604.4,
431,0.155,7692.1,11197.5,13617.7,14201.7,9718.3,11797.8,13839.5,8189.6,9987.9,11078.8,9255.9,10767.3,11507.7,8849.3,7833.3,10391.3,11795.9,12215.3,11645.9,0.0,257920.4,
432,0.187,7132.0,7573.6,13102.2,19113.6,10153.2,11908.0,13645.7,10322.1,15528.5,16689.4,6088.6,16784.3,15109.6,7038.9,10488.3,10205.2,15484.2,15320.6,19256.7,0.0,335029.7,
433,0.22,13190.8,21357.3,25387.6,23751.8,24414.2,29328.7,27262.7,20361.9,28418.7,21536.9,15462.5,21724.5,20347.0,14687.5,21308.8,17074.6,17641.7,24477.8,25525.9,0.0,362982.3,
434,0.191,6327.5,7551.1,8789.6,8813.0,8213.4,11278.6,10035.2,7773.0,12441.6,7200.6,5637.1,10624.2,8687.5,5977.5,6599.6,11846.8,12555.4,8978.0,7765.5,0.0,380155.4,
435,0.206,9173.9,15322.8,18001.0,16631.6,13268.3,16740.7,17275.9,11957.9,19687.6,16405.1,9071.5,40361.9,22705.1,8011.0,16027.0,21868.3,24768.2,18411.1,18740.4,0.0,381063.1,
436,0.152,11885.6,12816.7,11969.5,13461.1,12316.4,12370.3,11377.0,11574.8,10420.8,16297.7,11553.6,21752.2,14424.1,12382.7,10189.8,12425.0,20102.3,11596.6,15454.2,0.0,389249.3,
437,0.192,20061.4,22662.7,23398.9,20197.3,22903.2,24137.5,24293.9,16936.0,22594.5,22436.6,19904.1,35973.4,23389.3,14322.7,24243.2,81469.8,47568.7,21533.8,17210.4,0.0,475593.5,
438,0.215,8592.8,11888.3,10764.3,13123.0,12180.5,13723.5,13954.5,14363.0,18129.1,20899.3,11855.7,30793.3,15898.0,11675.9,15311.5,27706.2,25733.2,13030.7,18175.4,0.0,241790.8,
439,0.215,9060.6,9234.5,11710.3,13280.4,11435.2,12256.6,14042.2,12659.4,15760.9,36844.4,15379.1,79351.4,46070.1,13786.8,20320.2,39031.3,94843.7,17652.5,18508.9,0.0,361091.5,
440,0.179,12508.1,13243.7,15219.6,15698.6,14326.3,14678.2,17446.9,15553.9,22181.1,29301.5,14061.8,49476.9,45078.7,17403.9,17943.5,18934.7,43603.1,27070.4,23298.8,0.0,338016.0,
441,0.21,10988.6,11326.2,15254.4,15124.1,10533.5,11252.1,13365.5,10232.3,17200.1,19692.6,11631.0,31396.8,23526.9,8680.2,14296.1,18634.2,28326.9,17137.1,19462.9,0.0,291577.4,
442,0.194,10362.4,14649.4,15315.5,13771.1,15139.6,18325.1,16513.3,8915.4,13566.2,18059.2,9548.8,39336.5,27823.4,6586.9,11369.0,30297.9,41834.2,16405.1,16819.7,0.0,249939.0,
443,0.347,13355.3,12789.3,16442.0,21678.2,15578.4,15858.1,16723.3,16790.8,23834.1,32908.2,8879.5,31619.6,38250.7,10531.8,14933.3,22880.3,51769.6,27150.0,28583.3,0.0,255514.6,
444,0.273,15780.5,17487.0,14684.6,10538.1,21017.3,22963.2,17492.5,23474.6,36288.2,13655.2,12341.0,23821.3,13328.8,18038.4,19137.2,15240.0,21216.2,18449.0,14682.2,0.0,324837.5,
445,0.182,10049.5,16181.0,19919.0,18461.0,19220.2,22090.3,20185.7,15379.7,20999.1,16817.9,15718.7,32174.2,18160.1,11679.0,20613.5,53702.6,41438.6,16593.3,22006.1,0.0,231828.9,
446,0.203,11639.1,22493.5,25048.7,20293.3,19671.2,25782.2,24003.4,10039.5,22343.6,15891.1,5259.4,25048.3,18017.4,6502.8,8921.7,71873.7,32248.0,21635.3,17532.3,0.0,307620.8,
447,0.228,15528.9,18855.5,21580.0,24411.8,20590.4,23305.8,25348.2,24986.9,30334.3,53327.4,36218.9,127124.3,64831.0,23169.4,49267.3,111511.4,134530.7,32611.6,38161.6,0.0,285830.7,
448,0.219,15304.6,17589.8,21968.9,23843.7,19110.4,24000.4,25784.1,16514.4,27219.9,24629.2,14058.0,75615.8,41575.4,12189.2,17682.2,40299.7,69952.0,28309.6,21276.3,0.0,293267.3,
449,0.205,13196.5,17821.0,17445.3,15855.1,17195.2,19152.2,17148.6,10402.7,23794.8,29822.0,16649.4,58326.3,41167.7,11995.6,11273.5,36825.4,44221.3,26085.1,25454.9,0.0,330931.1,
450,0.238,20446.0,26223.7,31161.0,32954.9,23708.5,25599.2,27537.2,15137.9,19220.3,35423.7,13882.3,48073.6,43658.2,10470.0,17362.3,32605.0,52905.5,29338.5,30186.9,0.0,379542.3,
451,0.307,14146.1,18690.1,21777.7,23575.4,16639.6,19303.9,23730.8,12597.5,26026.0,26735.4,16411.5,106456.5,50321.7,8512.9,21199.3,70972.8,76057.8,31100.1,23032.2,0.0,305656.4,
452,0.178,7500.3,11155.4,13863.6,17253.1,11832.1,14232.1,14417.2,9850.8,18856.0,17940.4,13174.0,83623.8,21662.7,7283.6,21982.9,73615.5,30385.8,15964.7,17998.3,0.0,353087.0,
453,0.229,9850.4,10160.9,12881.8,14007.2,11964.4,13861.2,15574.8,10765.1,17187.7,19043.8,17698.7,32547.5,18415.9,12290.1,20563.2,64948.7,32921.5,19368.8,18902.6,0.0,287578.2,
454,0.216,15154.1,22287.7,23883.8,21106.4,20253.4,21428.2,21406.8,11133.6,15487.0,21416.3,14682.5,33768.4,13648.6,9074.2,17841.9,80275.5,29413.9,16037.9,27811.6,0.0,339991.4,
455,0.187,6427.6,7556.6,9211.1,7175.0,8319.0,10392.2,9209.1,9344.6,11276.7,18173.9,17269.6,86129.9,25960.2,6936.0,28740.9,102022.3,95165.3,9362.6,8862.8,0.0,305699.4,
456,0.189,7351.4,11334.5,15106.5,10769.8,11779.8,14049.8,13641.7,9703.9,12138.9,25457.9,14739.1,54080.0,27063.2,10886.0,20300.2,66016.5,94285.8,12091.5,10506.3,0.0,294253.8,
457,0.365,16367.6,25353.6,36760.8,37744.2,26633.2,34176.6,37685.0,16343.7,29030.3,21809.9,15788.7,39686.7,24201.1,12307.4,15244.6,76581.3,29100.5,36354.1,39402.3,0.0,347333.4,
458,0.591,16389.9,20134.1,20357.6,22257.4,21473.9,21250.4,22904.9,20919.9,29462.0,24040.5,13949.6,28323.6,22748.7,15199.4,24044.7,21293.9,19101.1,24645.6,26839.9,0.0,294232.3,
459,0.148,6195.5,7263.5,8128.6,6490.1,10246.1,10937.9,9711.3,11719.1,12385.6,17594.4,13139.3,38662.2,15892.3,11012.9,15245.2,63665.1,52575.1,10220.7,12085.8,0.0,274648.1,
460,0.225,11550.7,14822.2,15434.5,9834.5,12758.6,13670.2,12226.8,16024.6,14195.1,23170.4,24793.2,115470.4,27946.7,15335.5,48036.2,131303.3,82577.2,9810.6,12659.9,0.0,353109.5,
461,0.22,11856.8,19242.7,21994.2,19105.9,21640.0,24988.3,24843.5,15332.7,24630.8,20183.5,24371.0,98086.2,38473.7,10060.6,38195.6,143892.0,95475.9,21854.3,19363.1,0.0,285332.2,
462,0.269,9539.9,15201.8,13652.0,9181.7,14163.4,15038.0,12849.1,8833.6,17630.1,19807.2,24796.5,124277.7,39547.3,6301.1,38917.2,132396.4,105988.4,12895.1,7732.6,0.0,282240.8,
463,0.233,14902.1,21280.8,20948.6,16994.7,19542.6,19717.6,18120.2,15994.6,19862.2,23882.9,21928.5,84085.5,31465.6,13103.8,31655.9,99716.2,68566.3,15960.0,18527.0,0.0,223289.2,
464,0.186,9742.7,10803.0,11189.8,13251.3,9501.3,10774.8,10822.2,6615.6,8952.8,7635.4,9422.0,32541.6,7016.0,6980.1,11948.3,32261.0,7924.6,10973.9,9963.1,0.0,246370.4,
465,0.208,17716.5,24289.8,28479.7,21923.2,26520.5,30271.2,29626.9,18336.4,37762.9,42720.6,34162.1,139527.1,59859.3,14006.3,46657.1,143216.6,163395.8,29043.3,21281.2,0.0,269229.2,
466,0.341,7483.2,8664.9,9016.1,7259.7,8725.3,9345.2,9022.0,11380.5,10741.3,16323.6,16291.6,35236.1,17679.0,10640.2,18789.8,27855.5,34629.2,9910.8,11080.2,0.0,211841.1,undulating body in an opalescent multicoloured space
467,0.316,9964.6,11919.7,15941.1,18402.2,9333.3,10452.0,14402.1,10269.5,11968.7,9060.6,10586.3,13066.3,12182.1,11353.8,13506.7,11201.5,10841.5,14371.4,13010.9,0.0,239870.0,
468,0.221,12142.3,13029.9,15996.3,18422.7,13716.9,19259.1,20278.5,17790.4,22605.0,20547.6,19509.1,41577.5,23243.1,15350.2,26235.7,32969.7,24968.4,21117.0,21811.0,0.0,274459.5,
469,0.261,10593.9,11748.7,13526.6,13363.0,11513.4,15127.1,12885.5,11165.2,14340.0,11312.2,10587.2,11575.5,9085.0,11424.2,11221.9,10944.9,9038.0,11078.5,10765.6,0.0,232031.0,
470,0.361,5957.0,6215.3,6256.0,8074.9,5958.5,5728.9,7097.5,6336.9,6048.1,12632.0,9410.6,38709.8,16142.6,6577.8,14201.0,27251.2,39325.0,7119.3,11092.1,0.0,257028.1,
471,0.194,13269.3,14120.4,14205.8,12987.6,15739.5,14723.7,14113.6,16013.1,12764.0,14801.8,16119.5,19533.9,14489.0,15455.4,19700.6,19573.6,20566.0,9571.9,14364.2,0.0,272335.1,
472,0.194,6558.4,8463.2,8743.5,7498.5,8644.2,10046.1,10176.0,11934.4,11349.4,6004.1,9048.1,15495.9,7876.2,6668.3,13051.3,20236.5,11440.0,12384.7,7544.5,0.0,369232.3,
473,0.27,23906.8,24596.2,32140.4,25993.1,26970.4,30523.4,34252.5,31521.0,34658.7,19211.1,28208.8,57798.4,32065.9,25739.9,42987.5,46843.4,28478.3,29858.5,20539.3,0.0,297301.6,
474,0.213,11865.7,17450.4,20852.1,19455.2,16582.1,18390.6,16601.3,15399.4,20106.7,26594.4,14196.3,37193.1,24493.3,11489.7,18956.6,15620.2,26006.6,19651.8,22155.3,0.0,355792.3,
475,0.258,18768.2,22134.9,20991.9,21184.1,20438.8,20400.4,19980.6,20110.6,24994.9,21135.1,16665.6,28577.6,22114.3,19361.9,20819.8,20787.9,25604.8,20344.1,24121.2,0.0,342575.0,
476,0.183,10240.1,9904.9,10586.4,9196.6,10096.4,11443.8,10789.6,10723.7,11995.7,16561.3,8773.6,22195.4,16245.9,9370.3,11675.4,13784.6,17097.3,10990.6,11087.2,0.0,295714.5,
477,0.215,7915.4,9976.9,9813.8,10794.2,10857.7,12073.1,11496.5,13273.0,16378.0,12764.9,8249.7,47796.2,24665.1,8951.2,16180.5,19722.2,31290.8,17157.5,14741.4,0.0,278916.7,
478,0.175,7002.3,8933.8,12281.0,13714.7,10046.0,12642.4,13774.4,11826.3,15155.5,21090.7,8697.8,15806.2,21783.3,8709.2,11212.8,9832.0,18911.1,19969.6,21786.6,0.0,313060.6,
479,0.161,8152.3,6871.9,7373.8,9459.0,9199.1,7601.4,8125.6,11577.9,10325.6,12887.0,7153.1,12895.8,12544.4,9295.9,10141.9,7466.2,9487.3,9275.7,14055.3,0.0,291426.4,
480,0.204,7352.1,8817.0,8948.5,8012.4,8481.7,9219.1,8421.9,8530.4,8950.5,5890.9,13636.3,34013.9,8248.3,9102.7,17045.5,32687.2,21399.7,8594.2,7683.3,0.0,253299.7,
481,0.23,7796.2,11576.1,10971.5,11597.9,10818.0,12728.6,12501.0,10350.9,17680.0,12752.4,6221.3,14459.8,16338.1,6169.3,9353.6,7736.2,13194.4,13407.0,14029.3,0.0,239859.1,
482,0.225,20444.5,21088.2,19241.0,13984.1,22120.8,25077.7,21221.1,21832.5,29625.9,15884.0,14308.0,22498.4,22320.5,20301.5,20806.0,14735.5,19789.2,21767.4,15102.9,0.0,287835.9,
483,0.221,18586.0,13152.3,14979.0,17683.3,14237.3,14748.0,16931.3,20295.3,18730.7,21739.0,35467.1,16794.2,17356.0,31051.8,21487.2,24231.5,18230.0,17810.6,22536.9,0.0,242690.8,
484,0.206,6213.2,16551.8,26344.5,25213.4,15005.2,22190.5,24479.3,10870.5,25033.0,17614.3,9043.2,31476.5,21737.2,11480.0,14474.6,37805.7,26341.6,20601.9,22195.9,0.0,193930.3,
485,0.214,13818.4,16616.0,17995.2,20254.3,18013.8,20111.3,19245.1,15600.9,22825.0,13498.6,9143.2,39202.7,13977.3,12055.9,14971.6,41471.6,36099.3,15223.5,18659.4,0.0,242465.8,
486,0.16,7528.5,10115.5,12484.5,13962.9,10185.7,11117.6,13238.1,10377.4,17195.4,12808.2,6557.2,23508.9,16960.5,7910.2,9866.4,11024.5,10203.0,14765.9,18383.0,0.0,206080.2,
487,0.249,9236.1,10114.2,10098.2,9219.1,9929.9,10805.1,9417.2,12203.8,12247.0,8322.2,11496.7,16800.3,10038.5,10392.4,12740.2,15236.1,11542.9,9556.5,8814.2,0.0,238470.4,
488,0.204,16455.7,19908.3,23701.5,23442.4,22954.0,26281.7,25407.7,20157.3,25159.0,19907.6,16828.2,27926.8,25217.2,15292.2,19346.1,21016.1,28639.2,24289.4,22852.0,0.0,212486.6,
489,0.198,8153.3,7363.2,6077.5,6981.0,9102.3,8094.4,7858.9,12870.0,11971.2,8316.9,10381.7,18170.8,9981.2,12490.3,14950.3,10255.6,10410.9,7319.6,10446.1,0.0,200344.1,
490,0.232,9401.6,11227.5,11973.5,15057.2,12183.9,12510.1,14326.1,14737.7,18032.1,15777.4,14680.5,19124.7,16545.6,13980.5,16461.5,15743.4,13308.8,18498.1,21091.7,0.0,225271.0,
491,0.211,6642.1,8578.6,11313.5,11486.4,7060.8,7245.6,8041.1,5980.7,8268.6,18427.3,9130.0,35777.6,22971.1,6277.5,10849.0,18039.7,38944.5,10432.2,12607.4,0.0,223007.3,
492,0.255,11020.2,8791.4,10178.1,14041.0,9601.5,9682.3,12915.1,12652.5,18625.6,22481.3,13612.8,46591.7,26648.9,10100.3,17195.5,23898.0,45517.4,18666.9,17492.0,0.0,253153.7,
493,0.248,11791.4,10902.4,8836.6,9105.5,10398.8,10146.3,10114.7,13744.4,16343.3,18330.8,16680.1,62787.8,26380.0,15860.9,25752.2,28815.8,24710.0,13480.4,12590.6,0.0,328415.4,
494,0.302,19059.0,25115.5,35089.9,38779.9,29144.5,31888.3,37937.3,27262.9,45617.4,46094.3,21640.1,145733.6,68651.8,16275.2,48739.2,60429.5,63096.2,47295.4,50023.5,0.0,307052.0,fine iridescent purple particles streaming in an opalescent space 
495,0.27,9231.0,11298.0,21311.3,25413.2,16842.4,20331.8,23504.9,17234.8,23057.8,22827.0,13796.9,26033.4,26445.3,12979.7,21730.7,20855.4,30960.7,26548.3,23206.3,0.0,240666.3,
496,0.339,11420.7,10633.3,12582.8,16594.0,9609.8,11170.8,11732.4,13669.8,15380.0,17812.4,10299.5,36778.3,23870.8,10800.9,17749.1,25171.0,37972.1,16095.8,21094.5,0.0,247395.7,
497,0.42,17988.1,15462.4,19180.2,17443.8,20825.6,18294.9,18761.0,22754.3,19915.9,23778.0,22989.0,44443.9,33852.5,20704.3,31610.0,35428.3,46140.8,22627.2,22258.1,0.0,309020.9,
498,0.25,15182.7,26594.0,29655.6,21044.3,29328.3,33605.3,30859.8,13498.2,28235.1,14665.9,16244.4,48775.6,18557.4,8517.4,15384.8,91631.0,109480.1,17248.9,10799.9,0.0,236255.7,
499,0.386,18040.9,23099.9,26571.9,24368.3,27425.5,29781.9,28301.5,26677.3,33130.6,16752.3,14473.4,81623.3,25158.3,8057.7,20432.6,63880.5,69598.1,26685.9,16220.0,0.0,310684.4,
500,0.276,15035.0,19749.4,23402.4,19992.6,22981.2,31144.1,31646.4,23515.4,46504.9,22737.4,34123.1,176681.1,56396.6,14982.9,48286.3,110036.0,92283.0,38581.7,19146.4,0.0,246185.6,
501,0.194,7877.2,8884.9,9469.4,7764.1,10987.7,10273.1,8987.7,13844.1,15765.0,22236.9,12567.0,116923.2,41996.3,6578.1,35240.2,61540.7,57912.6,15229.9,12577.9,0.0,257661.5,
502,0.201,13568.7,17490.1,19641.8,22178.5,21238.2,27387.2,27648.4,13936.1,36476.3,20688.1,14723.3,83269.4,48000.5,8755.0,12163.5,77652.8,90112.1,30912.0,20132.9,0.0,265303.3,
503,0.293,17306.8,26258.6,25869.7,14214.6,24893.5,28364.7,22489.3,16294.1,25938.4,20732.4,27286.5,132200.9,48424.4,13760.7,39047.8,162112.1,135460.5,17499.2,15337.9,0.0,282592.1,
504,0.255,9787.4,17823.7,27924.0,29213.4,18166.5,25341.8,26815.5,8930.5,18977.8,19931.3,23396.0,90058.9,21357.2,7093.1,30120.2,144450.6,70363.7,21194.6,24817.9,0.0,304697.3,
505,0.267,9826.0,15155.6,18492.3,25954.2,14090.9,17793.2,19224.6,11494.7,19786.6,26240.3,21813.6,46057.1,25874.4,11696.4,20413.3,63650.0,20972.8,23750.8,31143.1,0.0,257072.5,
506,0.233,7659.8,15503.0,19157.4,13800.8,16008.1,21239.6,19959.5,13715.7,29710.7,15213.1,13418.5,109052.5,43051.4,7948.3,28290.4,52876.9,58313.4,22563.4,15516.2,0.0,290497.7,
507,0.364,10824.2,12012.7,12935.3,16093.4,9549.6,11101.2,11525.1,8979.1,8520.3,12728.8,12983.1,13968.4,12023.3,11446.9,10161.9,21843.1,24183.5,9823.0,13402.2,0.0,279556.1,
508,0.261,24574.6,21559.6,20280.8,18417.6,18575.8,19105.4,17682.0,19615.0,21112.0,23215.3,17692.5,45615.2,30119.7,22043.4,17129.2,31933.7,72535.1,17737.7,19008.4,0.0,323342.4,
509,0.242,8413.0,11518.9,15322.5,17367.1,10794.7,15307.4,15450.6,12556.4,16347.4,34230.1,14941.4,46619.0,31478.6,10113.5,24147.8,55092.6,48316.1,19718.6,25601.1,0.0,252864.9,
510,0.191,10499.9,11793.6,13799.1,12626.9,12145.3,13045.5,13045.0,8991.2,10759.9,20746.3,12014.5,46578.3,18897.1,12102.0,14971.6,42605.2,35598.1,11833.6,15148.5,0.0,306106.6,
511,0.42,10275.4,13479.2,20766.1,22806.1,17435.4,22684.5,24424.1,15276.1,34763.7,35938.5,20606.2,96783.3,64130.8,10503.9,22791.4,48707.0,86353.8,34860.3,31816.4,0.0,345292.2,
512,0.17,18976.3,17714.6,16622.6,12075.0,22246.7,21871.9,18900.1,21839.4,27464.5,26136.9,24384.3,66501.0,33971.6,15444.4,28597.7,85642.3,87860.7,16062.4,11995.1,0.0,259055.8,
513,0.177,5637.7,6274.2,9153.9,12925.3,6450.0,7653.9,10195.2,5396.3,8621.6,22001.0,7181.8,22733.5,22651.2,4890.1,7521.0,15854.1,33711.1,12734.0,16232.4,0.0,211903.4,
514,0.165,5158.2,5134.2,5861.7,5319.0,5213.4,7410.7,7431.3,7975.6,7987.8,11647.0,13967.4,34778.8,19783.3,10061.3,19759.3,31637.0,41919.9,7582.4,5384.3,0.0,275056.8,
515,0.321,22936.6,32275.1,31285.0,25075.6,42835.2,46947.7,38730.5,37159.8,45222.9,33405.2,33419.4,74164.3,44664.9,26591.7,50665.9,101560.9,92969.4,30412.8,26431.7,0.0,256526.8,
516,0.189,16268.1,22208.7,23732.5,18681.5,23806.9,28829.4,26937.9,19089.3,29895.7,33891.6,12591.5,72108.6,44087.1,13443.4,22578.5,67849.9,141566.5,15955.0,12512.5,0.0,262513.6,
517,0.233,15327.1,20866.7,25512.0,30125.5,22149.2,25157.7,29489.5,23836.6,32157.3,42403.0,20045.5,102374.3,54125.2,17346.4,46520.4,79783.7,97052.6,36215.7,33480.7,0.0,253185.7,
518,0.299,12667.5,14114.8,15916.3,20131.3,15840.1,16317.2,19262.8,20554.0,24274.8,29498.8,14485.3,32662.5,30632.0,12704.4,28229.6,26707.8,20628.4,27131.9,28462.2,0.0,238273.8,
519,0.314,8988.4,8174.3,8602.0,13797.7,11101.6,11441.7,13121.4,15720.3,20087.4,32912.0,19990.2,44463.2,29512.2,13399.9,24192.9,48258.6,43296.4,20924.7,24628.9,0.0,276623.3,
520,0.213,19227.0,25947.3,28701.2,21778.4,28916.6,35689.5,32782.7,15489.2,31260.2,52119.8,13504.8,56668.6,37742.8,8083.5,16032.0,50180.6,114572.5,18727.9,24233.7,0.0,237814.4,
521,0.253,17860.8,19801.2,19294.5,13355.6,23352.5,26982.1,21455.3,18736.8,24636.3,47754.2,14490.5,51169.4,45311.8,15464.4,18456.3,48869.9,94018.8,14066.0,30009.8,0.0,204839.1,
522,0.173,15241.8,14898.5,11790.6,10186.7,16007.8,16666.1,13947.8,8568.4,15767.5,24107.7,12293.8,28675.0,19150.0,8150.2,15837.5,45099.2,34508.5,12253.9,12355.6,0.0,237469.4,
523,0.206,11059.5,11478.3,9422.2,7503.8,12470.1,11209.0,10601.3,6564.1,11555.0,17888.6,19520.7,55481.0,17357.2,8552.7,27014.6,86512.9,54872.1,11029.8,10099.9,0.0,235309.9,
524,0.262,18862.3,22798.9,20917.5,19438.4,26419.1,28946.2,26022.5,23245.7,39817.0,21865.4,6758.6,58238.0,27512.7,9865.0,15203.9,30718.9,23605.6,29378.6,28263.2,0.0,209283.2,
525,0.242,18049.9,21042.2,24119.4,16931.7,22205.9,26229.8,22966.1,21180.0,24935.9,30692.6,52810.0,122709.9,47602.0,21263.1,62334.0,158396.1,118080.3,20075.5,12257.4,0.0,219276.5,
526,0.22,18816.0,26133.9,29317.8,25188.5,24557.4,28796.5,26042.4,18445.8,24560.0,17606.5,24238.3,70714.3,24840.7,16241.6,33951.5,51253.0,39864.8,18627.2,22284.3,0.0,182221.6,
527,0.202,13874.3,20982.0,20129.0,15913.5,18115.5,20779.4,18307.8,19696.1,24545.8,12210.5,13766.9,51870.8,33532.8,12449.9,18102.1,10024.5,63257.9,16867.5,11792.3,0.0,202521.8,
528,0.21,15309.3,20680.2,24810.3,18426.9,17738.3,22389.6,22058.6,9519.1,14808.7,19396.5,12717.6,51207.2,27452.4,9075.0,18706.2,54248.8,42116.2,17174.3,16753.1,0.0,271548.1,
529,0.258,17195.6,29839.6,29409.2,19289.2,30840.7,37600.2,28482.1,16885.8,32785.6,29509.0,9329.0,49514.6,39289.5,9546.5,19106.8,27254.4,74653.3,23422.8,22511.1,0.0,194166.8,
530,0.193,9329.7,12935.2,19976.2,25036.0,12694.3,16675.5,20699.5,15420.5,22973.5,37905.2,11775.4,39296.3,23283.1,6914.6,24130.9,26357.7,30549.1,23539.1,28969.6,0.0,163412.5,
531,0.218,8911.7,11776.5,14036.2,19122.4,10908.0,13984.6,17595.7,12041.9,19766.4,19561.3,13742.0,51777.4,30629.5,8228.7,27816.0,57498.4,43431.6,18096.6,20451.5,0.0,262313.1,
532,0.254,19906.4,19908.9,19364.7,19083.1,17610.9,19500.1,17670.5,15076.9,13766.3,16953.9,17764.5,30058.9,15727.6,17314.2,21961.7,37326.0,22012.4,15970.4,19132.7,0.0,206861.7,
533,0.421,22401.8,28073.5,33914.6,30878.9,29204.8,36694.9,37098.3,20515.0,36111.2,14371.1,16300.9,61268.0,22449.5,16196.2,21475.2,49765.4,41556.9,29310.4,25890.1,0.0,228474.6,
534,0.2,12615.3,14702.5,15327.8,21897.2,16353.0,18640.7,20457.0,19083.5,30960.2,56666.5,19934.9,112094.2,74495.2,13196.2,39636.8,70398.9,101015.7,35264.5,37694.6,0.0,224289.5,
535,0.214,13485.8,26526.3,30132.2,19608.3,27804.7,33891.3,32673.7,14590.3,31180.3,10455.5,5161.6,27285.5,25244.5,4789.4,5644.0,23630.8,52734.4,21731.9,12102.7,0.0,153863.3,
536,0.179,8524.5,10935.6,14531.4,10610.0,13384.4,14425.2,15638.6,13328.5,25531.8,34890.8,16183.3,110282.6,56721.5,10263.1,26315.5,67868.4,142919.7,18441.2,14614.1,0.0,192127.1,
537,0.211,5293.0,7036.1,8001.7,8750.2,7972.5,9934.3,10155.4,10202.5,10556.6,23379.6,22114.3,77794.3,38626.3,11612.8,33290.6,78918.8,66639.2,10047.8,15158.4,0.0,229004.3,
538,0.296,20883.5,25684.2,30818.0,28702.7,26887.5,31911.0,31704.3,20559.9,24298.2,39898.4,22852.4,47710.1,32316.3,22092.5,28548.2,68989.7,80484.8,20680.6,34786.8,0.0,197835.6,
539,0.311,21507.8,29774.2,32646.5,32583.1,28749.7,35018.7,33334.9,19304.2,34362.5,27043.9,13592.0,26317.2,22557.6,12529.6,11983.9,46932.9,28424.7,31661.3,41761.8,0.0,253789.6,
540,0.326,7189.4,11169.4,15039.0,23489.6,12784.3,17604.6,17773.4,9699.6,15932.8,43469.3,16858.2,37652.6,36249.3,9448.0,18640.8,63513.6,82063.6,19924.4,37907.1,0.0,214083.4,
541,0.193,12475.7,19691.1,22804.3,17524.7,17171.3,20819.8,19725.8,7975.9,16520.9,14826.0,7259.5,27487.6,16325.3,4967.7,8484.1,23011.1,39384.4,15290.6,23049.3,0.0,239366.5,
542,0.295,19735.7,29839.4,38555.3,48136.7,28835.9,35551.6,39731.5,26215.8,38132.5,62118.7,22985.0,37235.3,46038.0,19250.2,32047.6,40903.0,43288.0,46051.7,62818.8,0.0,205060.1,
543,0.177,6390.8,9604.8,10780.9,10072.8,11222.0,13272.2,12608.5,8915.5,18617.9,12917.5,4872.9,14832.0,17321.5,4266.7,8959.3,6287.5,10650.2,13989.7,14846.4,0.0,213059.0,
544,203.366,5491318.0,68345.4,220960.6,4817557.8,61942.7,19119.5,37013.3,55596.1,19732.0,13088.8,19636.9,14307.0,13503.9,253169.7,14544.7,16674.5,13895.2,22059.6,52881.4,0.0,509486.6,FRUITION-CALC
545,50.719,227653.4,46544.0,95352.0,267360.0,27211.2,27713.7,28840.6,19370.9,35660.2,18967.1,14137.7,17886.6,22037.2,53669.4,10776.0,64232.9,59486.3,32897.4,39989.5,0.0,223486.0,
546,3.007,13845.1,10281.3,15949.9,24993.8,14401.8,14702.4,17934.2,19805.6,19646.5,31216.2,28307.0,41566.3,24395.5,25092.6,27997.6,45943.0,29782.1,20471.0,35496.0,0.0,216265.7,
547,0.301,11752.8,15075.3,14033.7,14516.1,10369.3,11719.5,13375.4,9719.2,11580.5,19748.5,20721.3,42387.1,14325.2,10584.7,17744.4,64026.7,23751.0,15399.6,20606.9,0.0,425975.3,
548,0.775,17625.1,23032.4,25540.8,20992.9,28050.5,33724.1,31118.1,28167.0,39747.6,43371.9,20978.5,68615.4,55070.7,19863.9,30288.2,32392.5,130963.2,33659.3,26246.5,0.0,506228.8,
549,1.523,12321.7,16406.6,22168.5,22441.9,15970.2,19508.3,21015.3,15536.5,24497.8,65732.4,12327.3,102654.3,83844.8,12166.1,22963.7,36074.3,151192.0,35741.7,41190.2,0.0,339412.4,
550,2.663,20726.9,30778.2,35748.2,31489.3,34317.2,38868.6,39211.8,23731.7,47696.1,47963.2,15934.0,86093.9,57806.6,10788.1,27128.1,59292.7,135186.6,38176.1,33295.3,0.0,246779.3,
551,2.354,19599.1,23273.3,25090.1,23823.6,26580.3,29135.5,26356.6,19875.7,33844.2,15240.9,15864.5,68638.5,20527.3,14965.8,24432.3,56066.7,22734.9,27033.1,23800.7,0.0,275308.9,
552,2.059,41420.9,63786.1,71937.7,56470.3,76139.8,87896.2,85733.2,42304.4,94864.6,67304.6,18437.3,235979.7,122934.7,18722.6,56666.2,109034.9,192632.0,80087.7,52301.1,0.0,234426.4,
553,1.266,16545.8,25875.6,31053.2,40040.0,26692.4,33238.2,39722.8,44132.3,76700.7,95611.5,34388.0,415071.0,244965.5,27749.0,109854.2,99832.7,155649.9,99528.9,71575.3,0.0,243997.1,
554,1.414,15517.1,14856.7,17042.1,15382.1,18184.8,20391.1,17113.8,19488.9,29871.1,54131.3,21553.6,200886.0,116315.9,22678.1,41667.4,44093.7,152317.5,35229.1,29426.3,0.0,238829.4,
555,0.418,27747.8,35900.0,45561.4,58313.0,44733.4,57644.3,63984.8,38796.8,90435.8,116022.2,11890.1,369582.0,229448.8,19100.5,68200.4,60706.7,242504.9,112060.8,77760.7,0.0,219752.4,
556,0.223,9085.6,12658.3,13146.4,14338.7,15660.3,17365.3,16888.2,18610.1,29493.7,38662.8,11457.4,151994.2,90567.6,11342.9,33547.5,37336.9,84885.6,34846.2,27969.1,0.0,232571.7,
557,0.309,13910.8,15924.6,14329.0,14584.2,16110.7,16960.4,17699.3,16219.8,30608.5,44263.2,9652.3,128794.1,83143.2,9668.2,32244.2,30998.2,93517.6,32375.6,26331.4,0.0,228476.9,
558,0.215,12765.1,20024.9,25028.6,21707.4,23168.0,27362.4,26765.5,19762.5,26376.8,25748.6,14073.1,48709.0,41313.5,12694.6,19371.1,24225.7,68966.3,24927.4,18075.6,0.0,188107.4,
559,0.22,19838.1,20278.1,20123.1,18645.8,20628.1,22886.4,21382.6,19720.1,20603.9,26223.0,13910.6,32592.3,29512.5,13707.7,19478.1,11500.7,26081.3,21577.0,23065.1,0.0,230307.2,
560,0.327,30096.1,29993.6,29784.2,25554.9,34319.1,34007.7,32338.7,32163.1,39489.1,18687.7,28773.0,78377.6,40929.4,30190.7,49706.4,64030.7,40888.0,29714.2,21521.8,0.0,238633.4,
561,0.175,11463.2,13437.3,14922.9,16611.5,13691.3,14927.6,15769.6,16409.1,22360.9,30631.6,16437.8,110072.0,45717.9,13183.9,32456.4,38487.6,44464.2,22009.0,26015.4,0.0,211276.1,
562,0.17,7184.9,8173.4,11598.3,17641.4,10864.2,11517.5,14715.4,9105.1,17192.9,32735.5,4101.0,21124.0,28082.5,5986.5,7204.7,6022.7,19657.6,21215.1,28099.6,0.0,164672.0,
563,0.248,15162.4,17477.0,21852.0,25259.4,17654.9,19904.5,20165.2,17246.1,22934.0,36694.1,17592.8,102926.8,52488.3,15520.7,28950.5,54842.9,65704.8,24826.8,32783.3,0.0,216173.9,
564,0.165,14289.0,21276.2,26870.2,25348.5,26947.9,34138.9,32643.1,22990.1,45732.2,49569.0,21611.5,212308.8,99945.1,14496.2,36932.0,83998.1,198041.5,41306.8,34858.9,0.0,193145.1,
565,0.26,12030.5,17091.6,18840.6,17698.0,17868.0,20903.0,19709.6,15570.9,31025.3,28666.1,19891.0,188688.5,68823.5,8656.2,38348.8,99496.4,133075.2,25023.9,20528.7,0.0,185828.6,
566,0.215,17359.5,28158.7,35387.5,30699.7,30357.1,41379.1,42094.1,18122.5,40779.1,43965.6,21274.7,181734.5,76794.0,14638.6,33165.3,91644.8,171440.6,34664.3,25695.1,0.0,158932.3,That was a no self impermanence door fruition on a very abstract reddish whitis pinkish object 
567,0.347,19021.1,28389.5,33107.9,38300.1,33492.2,39713.6,39441.7,21934.5,44291.6,32109.7,12969.4,112152.3,59396.1,12277.0,22830.1,39384.4,69878.7,44258.0,35641.7,0.0,144225.6,
568,0.282,31039.7,41336.8,44718.5,40362.7,43482.1,48073.5,44417.1,28624.7,43299.3,16811.0,20813.6,105916.5,35593.4,17993.9,36093.5,146289.6,121855.6,32665.6,26273.8,0.0,168025.5,
569,0.24,21590.6,28930.5,32554.9,35861.7,30923.7,36933.6,38084.8,21072.8,46691.2,58057.3,5179.4,140863.1,115372.0,12455.9,17464.1,37801.7,173148.3,51696.1,36417.2,0.0,212619.5,
570,0.309,19405.7,23398.2,25860.6,25728.0,26312.4,26874.1,25333.0,19263.6,30801.5,30216.1,11604.1,98857.7,57363.8,9849.4,27624.9,35836.2,100022.6,26989.1,19381.2,0.0,191793.2,
571,0.335,12418.9,23132.8,23863.3,14926.3,20372.0,22352.0,19881.7,15360.8,27358.9,20315.0,16682.6,151206.4,49979.8,8154.5,45040.8,83879.8,97625.6,20528.9,11804.5,0.0,198651.5,
572,0.359,20403.0,22676.0,25876.4,23435.7,22869.7,28388.0,27022.3,17818.7,34142.8,41489.6,20057.5,112885.4,91640.4,17001.5,23663.4,34858.2,114410.5,36289.4,26536.0,0.0,158150.8,
573,0.367,23753.5,32242.0,38106.0,26508.9,40120.7,47502.1,41743.6,25607.5,41503.6,57912.7,46907.4,200572.9,92816.4,15176.3,61633.0,234100.8,250077.5,25057.6,21930.1,0.0,186455.8,
574,1.135,20918.8,32233.7,37664.1,27865.8,29705.9,34969.9,34444.1,11319.8,24300.5,25925.4,18831.3,116280.4,38861.9,7938.3,35619.6,153866.3,111483.9,20234.0,20067.0,0.0,151818.5,
575,0.29,13681.6,16757.0,18069.8,16858.9,18793.9,20028.4,20422.1,25276.3,28486.2,34810.7,27133.9,163666.3,73724.6,10574.9,63042.4,131420.4,85304.5,32136.1,20763.5,0.0,121796.7,
576,0.222,16678.0,19173.6,21862.0,18951.9,25077.2,26162.7,27868.7,27717.5,48682.6,42153.7,18110.1,107421.1,72463.7,16319.6,40052.9,59093.7,99899.2,37189.5,24403.9,0.0,170183.7,
577,0.189,9437.0,13871.5,16780.0,16641.1,12950.2,17025.0,19094.9,13636.7,22503.4,17261.2,30411.4,112941.2,28985.0,13550.5,49322.6,110666.5,63918.9,15592.8,13716.8,0.0,168287.1,
578,0.244,10931.5,12504.1,15615.4,16362.0,13582.9,15037.7,15485.9,16764.1,19671.5,30244.0,25053.9,47221.0,28943.7,15834.0,29122.1,74243.9,52131.7,16286.7,15439.7,0.0,169498.6,
579,0.297,39438.8,50255.3,51382.2,42617.7,54495.6,57847.0,55097.0,35544.1,53541.9,31420.6,21054.0,72082.4,45174.4,26919.2,25489.1,53194.5,122162.1,42767.7,32963.9,0.0,148884.8,
580,0.261,39537.7,42178.1,39899.2,30409.4,43952.5,43571.4,36456.5,42925.4,43395.4,27405.7,42733.5,75672.0,41297.9,39875.5,52620.7,84513.1,101557.0,29610.2,24406.1,0.0,206454.2,
581,0.202,14229.8,19559.1,18410.0,19445.1,20003.4,23710.4,21312.7,14276.6,21267.4,46139.8,17592.0,87267.5,54193.1,12455.9,28969.2,38917.3,62613.8,26145.6,33642.8,0.0,240506.4,
582,0.171,5668.0,6826.3,8053.0,8926.9,9302.2,10186.8,12290.7,12202.6,25655.2,35617.0,17752.5,146929.6,77650.0,6800.0,37230.0,60485.2,90649.1,22973.3,16268.4,0.0,154180.8,
583,0.209,11129.6,15868.3,16105.2,12466.3,16210.2,19348.1,16855.4,16398.3,26200.3,12848.2,15462.1,81118.7,33058.6,11611.8,29920.4,52163.2,68796.1,13025.6,6804.1,0.0,173132.8,
584,0.265,17456.5,28939.6,30604.2,27124.6,29018.1,35421.9,32105.3,14458.5,37072.6,37895.1,8368.6,143404.4,93782.3,7046.5,29009.1,57404.0,136155.1,35961.9,28451.0,0.0,146269.5,
585,0.223,15723.3,19568.6,19352.1,16662.1,22773.1,26385.2,23814.0,16834.1,27964.6,60859.9,10155.0,61844.7,89757.1,9552.5,11344.1,19130.6,135487.0,34950.3,25557.8,0.0,159158.2,
586,0.404,21044.7,25849.5,30759.3,26903.7,29721.0,37734.0,33970.9,26053.7,36596.7,34242.2,23924.3,106568.1,65225.0,18839.4,43262.3,66772.8,88751.1,30526.3,24813.5,0.0,175506.6,
587,0.161,4933.9,9315.6,9393.8,7423.5,9243.6,12305.5,10543.4,9664.2,19226.8,35580.1,19391.6,96391.6,53149.2,9152.6,34458.5,58264.0,84887.6,13057.1,17103.5,0.0,207102.5,
588,0.472,41062.0,40594.8,42681.2,37303.1,48125.7,48093.9,44994.6,49008.2,54297.1,48812.9,56532.9,89250.4,66097.0,43722.1,63373.9,79555.5,55028.2,45059.2,40423.7,0.0,151996.6,
589,0.186,5852.4,13183.0,13810.5,7529.9,10169.4,12808.6,11044.4,5059.5,11235.3,14520.8,5328.3,19977.9,9510.1,3454.5,8618.8,18741.4,11054.7,7068.5,10648.1,0.0,161270.5,
590,0.313,13873.0,16318.5,20524.9,16149.8,16571.7,18373.4,17104.3,11282.0,24232.9,21462.1,13979.9,75038.7,40214.6,8679.5,20389.0,40250.2,69131.2,15748.6,16237.4,0.0,199689.5,
591,0.196,10552.6,7683.9,7524.4,6608.5,10144.0,9179.8,8875.3,12256.9,10653.7,21600.1,10498.4,44928.1,28040.4,9481.5,19707.4,32491.7,50405.6,10400.7,8423.1,0.0,209952.5,
592,0.377,10721.8,15885.5,24770.4,39102.3,22380.7,27743.6,34471.1,18655.7,35119.5,58337.6,9730.2,86299.1,76136.2,11837.2,24634.5,29375.4,86277.3,49256.4,44860.0,0.0,191017.8,
593,0.424,28802.3,40040.5,52379.6,64916.6,36889.2,45246.5,53041.8,31001.7,42417.9,85600.6,41744.9,108104.8,93979.4,23433.2,39732.0,67557.4,147294.0,60413.4,64461.7,0.0,166901.0,
594,0.25,20053.1,23106.5,24616.2,12545.5,27595.6,32126.9,26660.8,20208.5,38507.7,18995.6,6483.2,82173.9,55652.2,11882.6,21488.7,22273.4,73737.3,25308.9,10650.1,0.0,170047.0,
595,0.815,23057.6,27992.3,30364.3,34900.1,30359.3,34971.7,35905.3,36953.8,48392.8,39320.3,24978.3,92402.0,70450.8,21057.9,51720.5,50031.3,70764.8,49388.3,32137.5,0.0,190041.3,
596,0.404,17974.6,26207.0,28396.9,19182.2,33642.9,36918.6,32280.1,29149.5,50270.9,32634.5,30730.4,70160.8,55003.7,22712.6,38144.2,31166.3,44747.4,34226.2,20523.2,0.0,149524.2,
597,0.193,15583.1,14921.3,20960.0,28366.9,13721.0,18271.6,20762.0,20987.0,27066.5,41836.1,27103.5,122804.9,61797.2,20572.4,47634.4,48453.4,84841.8,28684.5,39610.5,0.0,107597.6,
598,0.227,13678.0,15468.9,17060.9,17173.8,18224.4,23983.2,23372.6,15840.2,22691.5,9809.9,21005.4,51431.1,18937.0,12813.2,37291.4,68500.8,35479.2,18395.5,14138.0,0.0,127187.1,
599,0.191,8955.4,14801.0,14936.9,16705.5,12362.8,16375.3,17310.5,8101.3,17462.4,19358.2,18597.8,85149.1,48815.0,8345.2,24320.9,73825.3,75484.8,20359.5,19655.1,0.0,171437.7,
600,0.253,18947.2,22439.9,29446.6,25165.3,20926.1,23773.5,23693.9,25159.5,20369.4,24895.1,28351.6,99406.1,50827.1,22540.1,42764.6,84566.4,154282.3,22005.4,26440.9,0.0,158423.3,
601,0.394,24537.4,22979.3,28930.8,31598.4,29861.1,31264.2,33500.0,36527.8,44100.2,41817.2,27381.0,131874.6,82245.7,28661.6,62093.9,68410.6,65199.7,43126.1,36992.8,0.0,133843.3,
602,0.196,11699.8,19802.8,19940.2,19565.4,20217.3,24967.8,24739.6,15554.6,36076.4,28938.4,12564.2,108611.6,58029.4,7599.3,25629.9,63782.9,93891.2,29914.0,22500.3,0.0,144802.0,
603,0.248,12182.4,16157.6,19614.2,19096.9,17671.7,21494.3,22591.1,11798.1,31311.0,21492.5,14416.4,103002.6,50208.6,8240.5,20451.8,47244.5,78980.9,27718.1,18347.6,0.0,145950.4,
604,0.274,16308.5,21775.3,23444.0,18480.4,18829.0,19879.2,19583.8,19974.6,29634.5,17569.4,16577.2,173321.8,56997.7,13535.0,41883.1,66264.1,114484.1,15935.9,14943.3,0.0,154991.3,
605,0.332,15292.1,20512.2,19251.6,20329.4,25432.0,27199.0,24473.0,29142.5,49803.8,48925.5,28996.4,192853.1,92804.4,15291.7,54623.3,114406.4,157881.3,33464.4,25546.2,0.0,218426.8,
606,0.197,16074.8,26093.2,29170.2,23987.1,31121.3,37144.5,35364.8,27472.1,52702.9,32519.8,17879.8,190204.0,73554.8,9015.7,53172.0,108357.8,89912.3,43916.3,24520.2,0.0,155257.8,
607,0.604,11225.3,16587.8,22345.4,22788.1,17059.4,21174.2,22588.3,10896.7,25385.1,64693.1,11835.6,113487.6,79281.8,7351.6,18785.2,73174.5,162198.3,33700.8,31700.2,0.0,161045.6,
608,0.574,24124.2,30861.4,32960.3,32304.1,30744.7,34870.8,35907.6,24855.3,35190.7,97296.4,25854.3,98000.6,104175.5,18128.4,28002.0,60730.8,230836.0,46900.4,50509.5,0.0,196539.8,settling to the quiet and much ?? afterglow
609,0.299,18647.4,27352.9,25950.8,15407.5,24779.2,30938.0,27295.8,15724.8,33437.2,23939.4,19098.9,194147.8,56824.1,7627.2,36990.1,132246.7,159304.2,18677.2,8058.7,0.0,218586.1,
610,0.423,22548.0,23497.1,22915.1,17967.7,28218.9,27416.0,23762.8,20935.2,27689.3,23139.0,15522.8,47988.3,25082.3,13299.4,24934.8,70731.1,67891.0,20151.3,19096.3,0.0,254351.2,
611,0.418,20661.0,21138.8,20738.8,22942.1,23068.7,22634.9,24775.8,22383.5,26290.0,25071.3,26911.3,52372.4,25113.1,22968.0,27561.6,72914.2,33992.1,23238.1,24542.0,0.0,232801.2,
612,0.829,25653.8,36154.5,32286.6,24437.8,32389.0,37053.1,32264.2,14420.8,25146.8,15666.3,16057.6,110601.2,27948.8,12179.8,27709.9,117684.8,84209.7,20310.5,16742.8,0.0,250302.1,
613,0.314,12472.1,18695.7,19928.0,10893.9,18143.3,21335.9,18387.8,9168.2,23334.2,57899.6,16432.9,248714.6,120391.2,4934.1,41799.6,118760.5,258414.4,22387.8,11936.1,0.0,165740.4,
614,0.209,14809.4,18865.1,24314.6,24913.2,21943.5,26659.1,27530.3,21496.2,36039.7,48583.2,14388.0,117256.9,68857.5,9089.9,38444.3,77739.9,134543.8,33084.1,32618.1,0.0,207095.7,
615,0.476,32883.9,47724.4,51431.7,48565.3,47684.8,57098.1,56264.5,38857.7,62513.3,71500.0,28659.9,226150.1,116296.7,20471.8,70893.1,169562.7,204119.8,59478.9,59392.5,0.0,170158.8,
616,0.222,10110.1,17701.9,21481.0,17888.6,15304.0,20401.7,20788.1,8674.7,16028.7,30280.2,16920.6,87545.9,52889.3,9607.9,17583.9,55116.2,100964.4,20893.3,23020.5,0.0,170346.3,
617,0.229,16916.8,17107.0,22435.8,27476.1,16366.0,19028.2,21120.3,19235.0,21248.0,46929.9,37547.6,140844.9,66277.1,31724.9,43723.0,78095.2,112610.2,26600.3,43923.0,0.0,170707.7,
618,0.333,12697.4,16857.2,19593.6,15537.4,18248.1,20117.0,21137.1,20250.4,28849.6,25645.2,44846.0,201589.2,58072.3,18598.1,80081.2,170697.5,84666.3,25054.3,16170.0,0.0,206485.1,
619,0.221,17995.3,24008.3,26340.3,25251.7,25026.9,27413.5,27461.7,17944.1,28500.8,24677.4,21581.0,42808.3,30657.6,15655.4,22414.6,39354.5,45045.7,25615.8,23146.3,0.0,156966.8,
620,0.228,9117.4,9466.3,10348.2,14622.3,10741.2,10264.9,10382.6,11726.3,12817.9,15986.5,20136.7,20173.7,12536.0,16363.6,16683.4,19644.1,12496.0,10106.9,22017.9,0.0,230126.1,
621,0.452,28456.3,49966.0,54546.1,42169.8,74471.9,91770.5,87312.7,38235.6,111155.9,43272.4,23497.6,151848.7,92163.6,12542.5,34433.6,102765.9,153066.4,74645.5,31774.7,0.0,166587.7,
622,0.21,17200.2,26618.9,36102.5,30173.9,25359.5,33047.2,31765.9,25190.0,29205.6,45031.8,30238.6,212382.8,90994.6,17954.2,72174.7,139425.1,163012.1,31076.3,28356.5,0.0,138907.0,
623,0.416,19488.0,26991.2,29897.0,26305.9,25973.1,30952.3,25454.8,20012.4,28437.4,31935.1,28981.2,99254.5,48240.7,18360.9,32845.2,67353.3,97248.6,23783.9,25481.0,0.0,170136.7,
624,0.488,24864.4,25038.0,26220.3,26983.3,29168.2,30592.5,32089.5,30161.9,40595.8,28669.0,31616.4,105280.4,37883.5,28784.6,49364.1,85123.3,42314.2,35062.9,29665.2,0.0,107673.9,
625,0.281,9171.1,16100.3,16604.4,10283.1,12643.5,14384.2,13823.4,7041.9,10729.8,17018.1,17556.4,104390.1,33046.1,8072.6,22403.3,62094.7,94259.8,8690.7,8147.4,0.0,158695.8,
626,0.23,14823.9,16087.2,17300.4,14348.7,16587.0,19870.8,17064.8,16362.3,23873.3,23984.3,20235.3,87994.8,33116.3,12426.0,32099.7,50971.6,52563.8,21770.0,23154.0,0.0,116926.8,
627,0.288,15516.5,28894.7,34779.5,30775.9,29007.5,37624.9,39164.7,12576.3,34188.6,13933.6,10878.0,64324.5,16418.4,8524.4,14956.6,50181.9,61458.3,26161.4,24284.9,0.0,159862.8,
628,0.267,18778.4,31867.3,40671.7,35084.5,44025.4,51120.3,49107.5,34355.6,63295.7,18354.5,48216.8,172317.1,36567.5,25523.8,72397.4,170547.5,89835.8,42584.1,26160.7,0.0,172884.3,
629,0.222,29928.8,42388.7,48815.5,47550.6,48534.4,54940.4,54215.0,32015.5,57609.3,88252.9,14536.3,229727.1,169404.5,13065.1,38387.3,71514.2,248304.3,54291.0,53848.3,0.0,131308.6,
630,0.184,11683.6,19719.7,25349.6,14518.5,15161.8,20525.7,19621.4,7688.1,13674.0,41115.6,12995.8,160973.8,98211.2,6297.4,36978.9,76589.6,106309.3,18969.2,21452.6,0.0,152893.4,
631,0.193,11586.1,13713.0,18812.0,22781.8,14597.3,17665.8,19370.6,9894.2,15823.4,68572.8,22125.3,140759.6,83708.8,13313.9,32414.4,74991.7,179177.3,23754.8,32884.7,0.0,121719.4,
632,0.321,15947.2,34234.8,40580.3,28842.9,35169.6,48542.6,47951.6,25164.9,58752.8,62332.7,13843.3,203435.5,104727.2,11438.5,45966.1,84473.1,232117.1,50287.5,25097.8,0.0,115119.9,
633,0.225,15667.8,30330.8,37946.4,32021.8,26207.7,38857.8,38027.9,13804.3,30975.3,32794.4,10944.7,193427.0,79920.9,6850.8,43944.6,116046.0,149508.2,28294.0,25422.8,0.0,127928.9,
634,0.217,22571.5,29677.9,35498.4,32331.6,32682.7,39567.0,36608.6,34892.2,58758.0,70198.6,21637.1,312394.8,176701.2,17275.9,82945.0,95541.1,199077.6,62824.5,35989.5,0.0,93418.6,
635,0.266,15998.8,25605.2,26189.6,19508.3,26930.3,28241.8,25743.5,23371.7,33424.4,30963.0,48004.4,132675.7,45138.0,23700.0,64406.5,124815.3,59224.0,22552.8,30694.2,0.0,141186.7,
636,0.238,18653.0,24231.9,25821.3,28767.4,22040.3,28328.5,28453.2,20297.0,28200.7,52059.2,36209.8,113207.4,69792.2,21449.9,43178.4,90557.5,116160.7,36066.8,41310.1,0.0,174234.3,
637,0.268,23700.7,35111.0,43783.8,50996.9,38272.3,46296.7,50758.3,33070.8,64296.2,80177.3,24234.2,110165.9,79679.7,22033.7,56470.7,67996.5,82930.7,68781.4,82441.7,0.0,117373.9,
638,0.213,17482.8,16447.9,19645.6,19670.6,19484.4,20386.2,20572.4,34885.8,32962.2,38536.0,24164.0,149004.6,67620.2,24259.7,73374.3,66744.5,78758.2,29782.1,28711.7,0.0,155052.7,
639,0.244,12555.0,20557.7,23429.0,15959.4,17639.0,24130.3,21723.1,6841.2,17610.8,26326.2,8783.4,123327.9,62287.0,6661.3,23434.9,48990.8,130134.1,18331.8,17235.4,0.0,142008.7,
640,0.482,18810.4,21955.4,24745.7,25217.2,21066.6,24445.2,26084.0,24376.5,36325.0,35290.0,24694.3,133243.1,72960.9,19210.3,41140.5,39020.8,65496.4,36872.5,27739.6,0.0,145085.8,
641,0.199,13220.5,20123.6,21037.3,17375.9,20969.3,25025.4,21072.1,14677.0,25316.2,72892.5,8945.7,68422.2,94756.1,5921.6,16234.6,41165.1,152548.1,27934.9,32194.7,0.0,122056.4,
642,0.207,13547.6,20975.0,23471.6,17608.2,20008.9,25103.1,22905.1,21793.4,31958.4,47199.1,18303.1,109987.6,120113.9,12059.3,40375.8,40666.1,148275.9,30422.1,23444.9,0.0,206378.8,
643,0.189,15292.0,18991.6,23536.1,22670.6,17549.8,22902.0,26004.1,18481.8,38022.1,29774.7,25693.3,122687.9,69442.1,14254.5,48215.6,69723.3,56981.8,38632.3,30584.7,0.0,139109.8,
644,0.273,13093.7,15076.3,16651.4,15661.6,19308.9,22624.7,22435.2,19862.8,27623.9,27837.3,9209.1,50959.7,38651.1,13398.4,21897.7,19354.8,39416.8,19788.0,17378.4,0.0,154293.3,
645,0.456,11713.8,14243.8,16893.4,14048.9,16461.2,21877.7,19604.3,18037.5,27657.2,32084.7,14042.5,78248.4,47330.3,15076.7,26564.2,32592.1,93360.5,17268.2,16976.0,0.0,121224.3,
646,0.444,19100.7,28572.8,34376.6,28236.1,34722.0,42108.2,40869.7,27010.5,58080.2,49368.8,27594.0,73538.7,86591.0,19375.8,38988.3,52629.4,69761.7,53019.3,40029.5,0.0,124328.1,
647,0.286,8327.5,12426.9,15464.7,15142.4,12581.9,16267.4,16793.2,15580.4,28868.9,20499.8,12266.7,82787.1,32445.5,9049.7,24646.4,26955.5,39654.9,21718.0,17375.6,0.0,183108.3,
648,0.231,18836.4,37186.0,41630.5,32452.5,32915.5,41011.4,40454.8,16609.2,33343.9,42168.5,20997.5,183626.9,60488.5,10545.0,46787.5,116270.7,108166.0,26115.2,26255.5,0.0,127849.4,
649,0.208,14218.4,16926.3,20800.9,14834.0,17812.3,20656.5,19883.4,9795.7,18666.6,14223.4,16004.9,71019.7,28678.6,12112.1,15086.7,21145.5,27671.5,12303.0,11809.5,0.0,156374.0,
650,0.257,12129.8,12623.6,15583.4,17860.0,13843.3,14908.9,15435.1,14944.9,22858.3,33626.7,18659.0,141863.9,57534.3,14345.3,33494.8,45014.4,77557.6,22216.0,30203.1,0.0,146924.2,
651,0.198,15532.4,21014.5,27706.7,27293.2,21513.0,29905.5,30594.5,13388.2,28971.8,33312.7,10181.7,142712.3,50632.2,9385.0,31066.6,60130.3,35648.0,32417.7,30057.6,0.0,167874.3,
652,0.557,14309.2,18477.4,18912.3,18737.8,17199.7,17372.3,16966.8,10749.4,11837.8,24198.1,14326.8,36145.6,28924.1,12916.4,14953.1,20211.5,34214.3,18751.9,20820.6,0.0,102420.4,
653,0.247,13045.1,17878.3,25411.9,32145.1,20246.1,26391.2,27503.4,18214.8,30250.7,28203.3,13040.4,37521.8,38859.1,13476.8,20983.7,20952.2,31848.8,34669.2,34753.6,0.0,129055.0,
654,0.195,9790.2,9548.8,9252.2,12381.5,11080.2,10383.3,10797.8,12448.6,11376.6,21234.8,9059.7,13702.3,22251.1,12604.2,8607.5,9490.8,25082.2,15235.6,19467.4,0.0,123245.0,
655,0.457,23934.6,22855.0,23957.3,23496.6,22637.4,26793.2,24727.0,21242.3,25046.0,25565.4,26546.3,23251.2,25882.6,22496.5,22222.2,28053.5,21646.9,23333.2,26562.8,0.0,149430.8,
656,0.254,5880.1,7782.5,8682.5,8874.1,6078.8,7695.9,7826.5,5825.5,6150.4,6087.8,5222.5,6237.2,6179.2,4933.1,5326.3,5126.3,4579.5,7675.2,10855.3,0.0,131927.0,
657,0.23,10063.9,9521.4,12540.4,12821.1,9371.2,11890.1,11755.1,11278.9,11595.7,10384.6,15423.9,16782.6,11950.7,16619.9,15248.3,19633.1,14237.8,10537.9,14212.0,0.0,118767.4,
658,0.218,13530.6,15825.9,17141.7,14971.4,15554.2,16960.2,17709.9,11408.3,16372.5,15594.5,8895.6,21416.6,20164.5,9436.2,10426.8,16247.6,25750.8,17070.9,15093.9,0.0,108858.8,
659,0.218,8595.1,9901.0,11882.2,15148.3,9915.5,10606.8,12828.4,6951.0,9948.2,10474.1,4936.8,13416.4,10777.8,5467.4,7099.9,9933.5,14565.2,11351.7,13418.8,0.0,99188.0,
660,0.261,33234.4,37637.5,34616.5,28591.5,36491.1,40395.4,36240.2,33523.4,39928.4,26352.0,24461.6,45505.5,36172.0,29346.2,34277.4,33435.5,40207.4,31068.4,25904.1,0.0,157602.3,
661,0.48,22070.3,28777.5,31644.6,30193.5,29149.9,34145.9,33811.9,27094.5,35237.5,23613.4,21449.5,24179.5,25048.0,22928.9,24995.9,21870.3,24485.1,30898.0,25700.9,0.0,190349.1,Tranquil body undulating with purple red streaming particles
662,1.614,10583.9,20247.0,30581.2,24720.4,16607.5,20589.6,23282.7,12385.9,22585.3,24802.4,15949.9,46083.5,27632.9,10600.6,17743.9,48418.2,33515.4,20504.1,24847.3,0.0,92242.1,
663,0.272,14534.9,20257.3,21578.4,19873.0,16934.4,19967.7,19380.5,13013.4,18340.1,13445.3,9785.7,19653.7,15919.8,10119.6,11872.0,11890.4,15547.9,16043.8,15210.0,0.0,155832.2,
664,0.331,6867.9,8633.8,11227.3,13441.0,9455.4,10365.5,13010.0,10269.7,15221.5,15643.6,10849.8,25217.8,17597.9,7236.3,13758.4,17342.4,22313.4,13797.2,17524.4,0.0,94075.3,
665,0.35,16098.3,21791.1,28910.7,26131.7,19534.3,25881.3,29199.6,15875.9,22883.6,19892.6,9292.2,19202.3,23561.0,11272.5,14009.0,11779.7,16710.0,24854.2,24980.0,0.0,86268.4,
666,0.271,19798.8,24739.3,30446.9,30913.2,27831.4,33056.8,34249.1,29889.1,32817.2,31598.7,18893.4,28031.1,29972.8,18338.0,23201.7,23659.3,27407.5,34005.6,31001.6,0.0,91339.4,
667,0.595,18004.5,19019.5,16830.1,18142.0,21849.9,22859.2,23692.2,22642.2,19920.4,16770.7,11620.7,28155.8,20616.4,16010.5,15423.8,25265.7,30349.3,21199.5,18613.0,0.0,87089.9,
668,0.275,10836.4,10663.9,10700.5,9291.9,9691.9,11186.7,11111.5,9262.2,14443.4,15574.4,13528.5,19414.8,13823.7,12652.0,10036.2,15962.9,15628.5,13020.2,15410.3,0.0,80138.4,
669,0.224,12127.7,14610.5,13071.0,11461.7,14311.4,15684.4,12592.3,15831.8,17329.4,17380.6,12505.6,18060.0,14879.2,9847.1,14960.8,15328.5,16448.0,13459.9,16708.6,0.0,94153.4,
670,0.233,16666.5,16757.8,16968.0,16582.7,20974.4,23547.0,20831.5,22775.2,27216.2,12455.6,12393.3,21192.9,15564.5,14315.8,19582.4,16242.4,13229.2,18086.4,11652.8,0.0,73349.8,
671,0.269,10672.3,13038.3,14354.9,18197.7,13586.9,13992.9,15352.0,14998.5,15534.8,22918.8,17492.5,19763.2,18602.6,14158.8,18067.7,20379.0,27968.6,14934.4,22112.2,0.0,123032.3,
672,0.187,6633.2,6100.1,6836.2,8269.4,6650.0,8120.4,7675.5,6959.7,7176.8,11702.1,9137.1,14444.7,13184.4,8870.8,7797.6,13015.7,15360.2,9914.0,12186.3,0.0,93590.1,
673,0.224,12866.6,18083.3,21538.3,22657.0,17909.5,21456.4,22423.3,14272.6,25833.9,16223.3,10310.2,21465.1,22149.0,11984.2,14258.5,13251.2,16539.4,21170.6,23602.1,0.0,97343.3,
674,0.178,9392.6,14971.6,18210.6,17017.6,13999.0,19782.6,17109.3,6454.7,12449.9,15695.5,8262.3,5520.0,12786.8,5566.6,4890.9,7259.9,11712.6,15511.6,13479.9,0.0,103652.5,
675,38.604,418458.8,64972.6,70470.1,678691.7,51889.0,17914.5,24210.4,26313.8,12618.5,10140.6,12430.2,9522.9,10998.3,47439.2,7389.3,4921.7,9875.2,14132.7,21378.6,0.0,131427.6,FRUITION-CALC
676,18.631,26782.5,24637.1,28975.5,61357.8,34669.8,15660.7,15922.3,11665.3,13504.7,22913.2,11807.3,18421.6,23078.1,16777.0,14891.9,27466.9,39991.2,16670.6,17188.2,0.0,118022.4,
677,0.611,16953.7,18002.7,17926.7,16899.0,18399.8,17659.2,17025.9,15157.5,17399.8,9844.8,7869.2,12961.1,11480.6,12770.2,11426.9,7155.9,9609.9,14224.6,13571.0,0.0,165958.5,
678,0.173,10013.9,12083.0,12069.9,12347.2,11108.6,12153.6,13624.1,10390.5,15209.4,9257.3,9782.8,21769.7,13468.5,10793.6,10352.4,14501.7,23677.7,11199.5,10172.8,0.0,267966.6,
679,0.408,11369.2,14023.9,20207.6,20471.0,13806.8,16245.4,19817.2,15063.0,24921.2,34445.1,13614.7,84368.1,50756.9,11421.4,26957.5,50899.5,109906.8,28246.5,25800.1,0.0,204539.5,
