Time (s),Var Fp1,F7,Fp1,Fp2,F8,F3,Fz,F4,C3,Cz,P8,P7,Pz,P4,T3,P3,O1,O2,C4,T4,A2,ExG 1,notes
1,2.677,10198.1,17973.0,29578.8,24359.1,24945.4,20767.0,23531.2,269598.5,20770.0,16729.3,13976.2,23577.0,21479.1,7032.4,106884.8,20995.9,27362.0,19136.8,14198.3,0.0,109330857.0,
2,1.622,12968.8,16171.0,17769.0,15418.3,23686.4,17692.0,16834.7,276752.3,19789.4,20458.8,15441.9,22277.3,15885.0,10470.4,162138.7,26550.0,22706.8,19407.7,18055.8,0.0,111727821.2,
3,2.349,15633.4,18638.9,23436.5,18645.8,20972.1,23853.8,22338.9,11481.9,24546.5,13623.0,18434.7,24746.5,18165.3,17254.7,118434.3,19884.5,26507.9,18643.9,16148.4,0.0,115576382.5,
4,2.28,6700.0,7590.1,11848.4,8611.3,6596.1,10763.7,10873.3,6993.0,9991.3,13230.3,8953.8,10970.0,9583.8,4331.2,114272.9,17190.3,13234.3,12347.2,13772.0,0.0,108218601.2,
5,1.988,16306.3,18768.6,22954.4,25719.4,19965.8,28134.4,26296.2,21957.1,25433.7,33304.5,12750.4,29946.7,32132.5,14825.3,104201.0,29042.2,37701.6,26034.6,29816.3,0.0,125698321.6,
6,2.087,10803.4,13245.4,12832.5,13923.4,12552.2,10815.9,11105.9,40396.1,13515.2,16885.4,11961.5,14316.0,10014.7,8904.1,61777.7,32867.2,25872.7,11508.4,17084.6,0.0,188272789.5,
7,3.537,30585.1,29416.9,29384.3,81040.8,51580.6,35185.3,37635.4,3304833.6,35786.2,58212.9,46150.2,36380.3,41745.9,30547.3,125960.1,45842.8,52253.6,33183.5,53153.3,0.0,17034102162.5,
8,21.602,226778.4,295392.2,279345.7,305635.9,253282.7,220463.5,221070.3,307152.7,191966.7,247703.6,158481.8,212303.4,203264.4,184905.6,242930.3,169767.7,233067.1,211135.4,213363.0,0.0,1912289752.7,
9,4.886,12108.1,59814.8,155899.2,150019.6,41238.6,34534.1,41602.4,338102.9,15555.3,19913.5,22087.5,20426.1,13626.0,6678.4,62733.8,27471.4,23780.2,17487.5,20130.3,0.0,9966484670.4,
10,1.062,17134.1,20560.8,25347.5,25314.0,57353.3,19651.5,21173.2,123663.5,22488.2,17251.3,58206.5,15802.5,20300.0,23045.0,92839.4,13217.3,22970.9,19963.9,24710.9,0.0,12629259293.2,
11,1.892,26440.5,25913.5,31129.3,28640.0,57511.3,32933.8,32739.7,53051.9,35779.1,26649.2,32500.2,39702.2,29698.5,51700.5,94017.5,38190.9,34527.6,26370.2,21707.1,0.0,1279334721.5,
12,0.723,25222.0,25220.6,24748.3,26870.6,23830.4,22473.2,21300.2,14923.8,19322.4,18468.6,10346.3,10216.7,17367.7,12685.0,141029.6,7300.7,18637.6,18390.5,24545.9,0.0,124500764.0,
13,0.743,48104.7,59945.9,70299.0,111060.8,83574.7,67885.3,74335.5,999346.9,72540.3,97006.5,35635.2,94997.8,91319.0,36044.1,101311.8,86708.2,111501.8,78114.4,118540.6,0.0,1708846529.1,
14,0.603,13368.5,18436.3,24220.0,218540.6,20321.9,22279.5,25600.7,167583.8,22804.1,25510.0,15411.5,29891.0,22132.6,14438.2,72217.4,28103.3,18833.0,28679.7,28864.4,0.0,20012.9,
15,1.745,21357.8,25983.7,25387.3,137045.0,28603.0,29450.5,28106.5,179016.4,27070.9,19937.8,9296.5,31750.7,32133.7,20903.7,28283.3,18059.8,23621.5,32694.5,18125.6,0.0,19050.3,
16,5.584,55273.2,182532.4,122499.0,99703.5,63322.0,54964.9,42301.0,404388.2,29214.8,17317.3,17595.5,19228.7,16535.8,15007.3,38182.5,19704.4,23375.1,22588.3,16789.2,0.0,23826.4,
17,3.548,28519.0,110435.2,79671.1,44111.9,30693.1,33715.2,28728.4,21303.7,22465.0,23926.1,12256.2,25477.9,25996.1,11754.3,42662.4,15877.5,27024.4,23043.0,26830.1,0.0,5170670086.2,
18,2.509,17709.8,44764.4,37901.0,451027.9,28904.7,13140.8,13718.8,903624.5,10757.8,3620.8,15523.1,15038.6,9530.8,12451.8,21017.7,13719.5,15167.2,7067.2,8445.6,0.0,2762389270.9,
19,9.205,8199.5,10962.8,12053.1,44989.8,71625.9,12506.2,12175.2,740315.0,11328.5,19231.5,30844.8,12448.5,12459.0,6756.3,36255.6,13902.6,18089.2,13460.2,11510.3,0.0,2122299657.6,
20,4.165,11584.0,11670.0,20732.1,17462.8,18961.4,18172.5,18787.7,450713.6,16367.8,27476.0,10363.7,16881.7,21121.8,8993.2,16637.6,15871.8,20542.9,18717.4,23941.6,0.0,269197787.1,
21,3.788,9396.6,7478.2,7237.4,9566.9,9856.4,7955.0,9286.9,36154.6,10052.6,13973.9,10387.5,9470.3,11025.5,10322.8,72804.4,13500.3,15354.4,10889.1,14031.5,0.0,173188776.7,
22,4.282,33927.9,35478.1,46318.1,41541.8,43636.6,39257.2,38353.6,41846.1,44740.1,38100.0,36226.8,44264.6,48833.9,35232.2,132997.4,48240.8,48255.0,42440.9,45117.5,0.0,59658147.7,
23,4.154,11426.5,13222.7,15166.5,14298.6,14039.0,18274.8,12616.7,79944.3,15314.0,14795.1,13364.0,15553.0,15550.2,10210.4,66688.8,15445.0,24800.3,13844.5,13083.0,0.0,30522003.9,
24,3.842,6547.0,6390.2,5680.4,6164.1,7097.2,6986.3,6985.2,40010.9,9815.1,10914.0,21710.5,14163.6,11114.6,9489.6,145455.5,14856.7,10753.1,7545.0,8194.2,0.0,25523298.9,
25,4.379,25073.0,25608.1,40817.6,49393.7,24669.6,34858.4,36736.4,24682.1,31701.2,64540.6,21768.4,45901.1,48318.9,20843.1,325735.8,54270.6,58214.1,41087.2,60587.5,0.0,8145201.0,
26,1.772,11342.8,9760.9,37021.6,51080.7,22822.5,12250.4,14557.9,2012340.8,14020.8,26522.3,28798.1,22284.8,19450.5,13189.6,92315.6,21913.1,27211.5,14841.4,24010.8,0.0,32274.8,
27,1.311,14857.0,25812.2,28826.5,81925.4,25591.0,24133.7,25562.5,600282.4,15082.0,12696.3,13805.6,16726.2,13564.3,11165.5,165574.3,13200.3,13592.6,17248.6,16887.2,0.0,3357995170.2,
28,1.28,7698.7,7843.3,11759.1,20128.7,18513.9,12792.4,10900.9,312044.9,10798.5,37136.5,15463.1,26672.4,14134.9,10808.9,156527.3,26010.2,20444.2,15167.0,19985.4,0.0,11485264151.0,
29,6.086,32853.8,136150.2,158114.2,402715.4,42723.1,59365.1,65885.6,765907.7,41575.4,24241.9,302625.6,34978.9,31671.7,561521.0,239122.6,35607.4,28859.7,43320.7,38779.7,0.0,1848122276.0,
30,1.325,13510.8,17716.5,37999.6,177522.5,27879.1,24230.7,26539.4,314768.1,23337.5,19333.1,360290.4,44773.7,25887.1,642961.7,138485.0,27352.7,37150.2,24759.9,15900.3,0.0,19767.7,
31,1.557,20714.5,18716.9,22365.2,26723.9,38338.3,23361.7,25736.0,118413.6,21609.1,31148.3,13181.8,22800.3,27765.8,15471.9,153004.4,16502.0,25623.5,28647.8,44129.2,0.0,25802.4,
32,1.312,4705.1,6521.4,13379.0,13301.0,6692.8,10596.2,12197.9,48331.3,10647.2,20369.1,22689.2,11954.3,12907.8,4519.5,97931.7,15458.2,13104.8,12255.8,15958.2,0.0,20671.5,
33,1.445,12458.2,13579.0,13328.3,23262.3,17067.8,14569.6,14601.8,500789.8,15822.1,15860.8,9819.7,18768.8,18473.9,9057.0,86972.2,14023.8,16409.2,15464.3,17262.6,0.0,45481.3,
34,0.484,13310.2,18745.6,24830.8,19405.5,24013.9,28400.9,25764.4,126484.3,34727.2,21737.1,14253.8,30651.9,29244.6,14617.0,44240.8,23501.6,15297.5,25622.7,23991.4,0.0,26510.2,
35,0.406,12896.3,15216.2,24123.9,31024.7,21702.1,18939.7,25032.6,217499.8,37356.9,14338.5,22186.4,28166.2,22354.1,13120.0,62909.8,26004.3,21342.6,28203.5,21216.1,0.0,4292302819.2,
36,0.542,23073.9,25827.1,24866.6,23803.6,20746.5,26399.2,28340.9,37266.9,26619.5,28482.0,21018.7,26904.8,32772.9,20309.7,74315.4,25357.7,27477.3,29998.0,32724.5,0.0,2636497078.4,
37,0.309,5227.3,6779.1,9235.0,11273.4,10313.9,9460.5,11463.5,22660.2,15896.4,14806.2,8818.4,27922.5,16140.1,6032.4,65331.2,24571.3,23826.8,13776.5,13922.4,0.0,19850460.3,
38,0.568,8585.6,12318.8,14529.3,14305.4,11898.2,15222.4,15610.0,26913.2,14242.7,15550.1,7835.2,23895.3,16266.1,7407.7,69284.4,24224.9,23439.3,15601.2,13560.9,0.0,235521.3,
39,0.775,15488.5,13528.6,11359.1,9901.0,13503.2,14373.4,11633.6,313227.4,11785.4,9245.4,12671.3,8895.4,8836.6,11494.0,48043.1,19482.5,6174.5,11000.4,8032.6,0.0,92515.1,
40,0.399,21556.9,21359.7,22056.7,18331.2,21891.5,26974.5,21610.9,48119.5,22446.2,21158.6,44243.5,26474.5,21715.7,17409.1,112832.4,20894.4,31902.6,19263.5,14595.7,0.0,70500.2,
41,15.247,14613.5,33636.4,47313.3,22735.6,12993.2,17680.3,17878.7,22082.0,11282.2,14071.1,15779.0,14179.7,13907.5,17382.3,29475.5,21095.3,25815.0,13665.6,13982.1,0.0,43211.8,
42,1.695,10529.4,15028.4,16098.2,10952.6,13509.4,14450.2,14704.8,11536.7,20570.0,13338.9,9506.0,33091.4,18474.9,7873.6,52594.3,23746.2,28106.2,16024.3,13262.3,0.0,14310.9,
43,0.375,7662.7,12166.8,17488.9,65659.4,13614.9,16312.9,16688.7,36690.8,16464.9,43205.6,14225.8,23125.7,32572.9,8340.4,54253.9,17679.0,33517.3,23935.3,43084.9,0.0,13260.5,
44,0.639,15304.2,20482.7,21461.6,83304.3,21123.9,23237.9,22441.3,42644.7,26227.7,20321.0,13236.9,36287.6,20655.4,12988.6,125696.7,25421.4,25611.7,23806.8,21119.9,0.0,18287.4,
45,0.975,12180.9,11565.0,17043.6,23143.9,14473.8,12179.1,15333.7,144971.5,12913.3,26059.6,23024.7,18518.4,18486.6,11970.2,88450.2,18541.0,38350.1,13510.7,21579.5,0.0,23124.1,
46,2.444,10118.1,13488.5,18693.7,29129.6,14168.7,18194.1,20852.3,399083.9,24410.7,23750.5,15846.5,23911.6,25870.9,10497.0,58063.7,19817.1,19360.6,23851.0,24842.9,0.0,27077.8,
47,0.309,11060.6,12563.2,13107.6,210599.5,14492.2,14574.9,15276.7,19149.9,22615.1,21928.9,25795.0,25746.8,18946.9,8913.9,81921.4,22669.6,27073.1,19686.0,14561.4,0.0,26361.0,
48,0.425,14356.2,17190.6,26346.9,32681.4,21376.3,27665.9,26569.4,14997.7,22656.8,17402.4,27289.9,13489.2,11031.5,12553.2,83920.8,18322.4,10884.6,25062.7,26275.3,0.0,30246.0,
49,0.203,6486.7,12476.3,14524.8,13058.9,17253.2,18576.4,16688.0,11521.5,18360.8,15054.6,12882.7,27247.6,14091.9,6958.9,25113.5,15571.4,23857.0,15114.3,15123.7,0.0,40326.6,
50,0.197,9041.6,12563.4,15761.7,18213.3,13358.2,14660.2,17386.2,16654.1,19659.4,21508.6,23117.2,64972.6,36978.3,9943.9,64767.1,60602.2,48015.4,25128.0,20650.0,0.0,148702.2,
51,0.442,9044.3,12323.0,14116.6,30351.7,13909.9,16253.8,17322.8,10380.9,20600.3,26798.1,8749.6,20194.0,22025.9,11498.9,126475.8,12263.7,15217.4,17614.0,23113.8,0.0,200310.9,
52,0.452,6278.3,4908.2,6634.6,7984.1,6819.1,8436.1,5441.3,6802.3,8659.0,25325.4,13491.6,15495.4,17988.6,6353.3,19026.6,22886.9,34694.6,10232.0,18260.4,0.0,293441.6,
53,0.283,21426.1,30763.5,36451.9,36572.6,31543.2,35487.5,39041.5,25672.3,40043.5,37438.2,33120.6,30936.8,45198.8,20842.7,56743.8,59043.0,29010.5,35732.2,34876.7,0.0,253055.2,
54,0.305,13356.3,17702.5,22386.6,27599.1,19052.9,21921.7,21393.7,19033.5,22993.7,25771.0,22152.1,23320.1,19154.7,15719.0,83849.8,23378.7,19830.8,19093.4,22342.7,0.0,336982.4,
55,0.28,14878.9,17308.3,21225.9,20493.6,19124.1,22510.7,20552.6,12359.0,18663.4,22166.2,16209.8,11346.4,17452.3,12818.4,61428.3,14717.0,14901.9,16578.2,27982.0,0.0,344250.0,
56,0.255,10604.0,16466.1,17277.5,15624.4,14851.3,22554.6,18394.4,8630.9,18866.0,16288.1,7479.3,11375.9,17151.1,7140.8,51531.1,9314.2,20368.5,14618.3,15455.0,0.0,327883.6,
57,0.477,5039.2,6647.0,8920.9,12267.8,9347.4,10365.8,10712.1,7035.8,14645.3,18991.0,6817.0,21692.2,17623.0,4877.1,100783.4,12009.8,16039.3,11071.8,23728.8,0.0,334015.6,
58,0.276,11894.4,14825.2,16318.5,15573.4,13868.7,13899.5,17111.3,10950.2,14140.5,20903.7,15513.5,21731.6,15015.5,11100.5,114255.7,23390.7,18968.1,13784.3,19670.7,0.0,405574.8,
59,0.211,8624.9,7172.3,7796.1,9959.5,9453.5,9621.3,8481.1,10814.5,12008.2,13867.2,12917.6,16380.4,17008.4,8672.0,139098.4,13709.3,13703.9,14231.0,11427.4,0.0,383454.0,
60,0.287,11098.1,13687.3,12859.3,9800.6,12419.7,13898.8,14375.7,44774.3,15560.0,14768.5,7010.8,17050.5,23840.2,8076.3,102552.7,9399.7,23211.7,18471.7,13013.0,0.0,393607.2,
61,0.232,20588.2,25793.1,23842.1,22691.8,26338.2,25836.0,23215.1,20946.9,20359.4,13016.0,14794.2,47165.6,15324.1,13047.8,123249.2,43985.8,24323.2,20340.1,16768.3,0.0,319090.5,
62,0.528,14166.8,22638.5,25710.2,24121.9,23728.2,28114.6,27296.8,24552.2,31631.5,21230.5,16124.9,57382.9,27095.1,16031.8,51767.6,39085.9,20988.5,26828.2,21810.2,0.0,335842.1,
63,0.338,18736.8,24004.8,25689.9,26720.9,23594.9,31053.5,31252.1,18227.3,30847.0,35572.0,18722.2,41900.3,46444.3,16589.6,149155.7,21995.1,72234.1,32031.9,30609.7,0.0,379941.9,
64,0.437,10105.5,12143.3,13139.6,10015.2,13719.2,16627.8,14122.1,18353.9,14431.4,14389.9,18202.5,24276.8,11608.2,15670.4,110648.8,22054.6,18375.3,11017.4,11202.1,0.0,316389.3,
65,0.324,13354.2,19568.2,23607.5,22749.8,23984.0,28540.6,29755.7,18528.6,40344.7,25790.5,15533.6,38368.3,29449.7,8547.2,85919.1,34323.9,21675.8,32200.5,28003.3,0.0,355607.4,
66,0.537,13153.7,14846.7,14150.3,17466.2,14031.1,13172.8,13764.0,13685.7,16913.8,27576.3,14277.8,22147.3,23898.8,10414.6,23558.4,21935.5,23848.1,17305.9,22593.0,0.0,324988.0,
67,0.333,6269.0,6539.7,7213.1,8218.4,7902.0,6819.2,7742.1,8693.8,7139.2,8606.5,10764.8,18079.4,7507.4,6997.4,60068.9,31963.7,13435.8,8142.9,9399.6,0.0,348934.9,
68,0.234,11652.2,17180.2,16871.1,17018.5,19779.7,22313.6,21873.9,16705.1,22692.1,21711.6,10709.4,39775.9,26285.3,9783.6,27016.6,37773.6,33028.0,21730.0,28779.6,0.0,437105.3,
69,0.198,13601.5,17450.2,17825.7,19003.7,24492.7,27165.5,25265.8,20445.5,28822.4,32064.7,11918.3,15264.4,23209.0,17818.4,229320.0,7347.3,30735.0,25492.9,26800.3,0.0,479101.6,
70,0.17,10521.7,11486.5,14738.9,12941.2,15819.2,18545.2,16258.7,11246.1,23155.7,23211.7,20376.0,23053.0,25128.3,10581.6,171467.4,16270.7,19639.1,18804.9,22496.5,0.0,567419.1,
71,0.222,9905.4,12477.7,15879.9,17353.2,16748.0,20401.2,17159.3,12929.7,20942.4,17245.1,7169.3,28078.9,17508.8,6814.6,118966.1,17182.3,19271.8,17260.2,16517.9,0.0,557132.7,
72,0.205,12042.1,12538.8,11377.0,12692.5,9854.7,12121.5,11590.6,12327.4,11743.4,10375.1,19602.5,11413.8,7300.9,15938.6,138103.4,17716.2,7273.5,9796.8,9529.9,0.0,541969.2,
73,0.222,5153.7,5803.0,9341.9,13651.0,6323.6,8156.3,12086.0,6752.5,8519.9,15169.9,8262.1,28427.7,20485.8,5607.4,153215.3,20317.4,10988.0,12344.3,17147.3,0.0,501151.6,
74,0.232,10979.9,15731.6,17591.7,17364.6,14849.2,17980.7,17337.0,14798.5,19849.0,15738.9,19005.9,46318.1,15887.2,11128.8,97939.9,32549.4,21052.8,15209.6,20811.7,0.0,402955.9,
75,0.207,14087.4,15033.8,19288.1,21962.1,16429.7,20736.9,19909.9,12017.1,19488.8,39630.0,13494.6,36906.5,38168.7,11571.6,47506.5,24439.4,38543.9,28151.7,42690.7,0.0,472956.3,
76,0.165,8925.5,10838.5,12438.2,12896.2,11279.1,10934.4,13045.7,12968.1,13082.8,8104.0,5914.9,39924.1,15215.6,6129.9,52122.8,39660.7,17261.8,14773.9,8981.9,0.0,344732.4,
77,0.327,16215.6,19578.9,29389.8,30025.4,21554.3,28157.7,32169.6,16370.6,27686.4,19226.0,17587.3,33100.1,22350.6,13842.2,99396.4,29630.2,12236.0,29875.5,28707.4,0.0,335212.0,
78,0.822,15638.7,18279.7,19398.6,21644.1,17085.7,17694.2,20756.0,16622.7,20305.6,21517.6,17480.5,27186.6,18471.0,11590.3,17733.6,35110.7,35952.7,21187.9,23299.9,0.0,332973.7,
79,0.233,5626.8,7882.7,9239.8,9795.3,8691.9,10757.9,10867.7,7347.6,9004.3,10168.5,20729.4,24949.1,10796.1,6271.2,32454.0,55321.7,26230.0,10949.6,12337.0,0.0,429363.3,
80,0.265,8704.1,7738.2,9819.1,21499.6,14356.5,15072.5,12890.9,15012.5,20732.1,39089.1,31387.5,61970.2,38321.9,13313.5,110897.5,129288.5,54653.5,22794.9,32471.9,0.0,456159.3,
81,0.263,33368.1,33992.7,28584.6,25698.6,34961.8,35041.0,32471.2,44330.9,41053.2,28850.0,59738.3,147616.5,49259.4,45959.9,211254.0,149273.3,83803.1,28299.5,31475.7,0.0,374972.4,
82,0.292,17755.7,19772.3,19883.7,20528.9,20264.2,23407.6,22075.0,26654.6,28011.3,30600.4,19732.4,79614.6,36598.1,18043.6,170879.7,56434.7,49901.3,24117.7,28846.6,0.0,434625.3,
83,0.236,10326.2,8386.4,8573.6,12028.5,10453.5,11808.1,11085.2,11689.6,15729.9,19379.7,12489.2,32312.7,15194.3,12417.4,74298.9,41100.8,23377.8,13574.2,20863.3,0.0,477674.4,
84,0.189,21886.1,21725.5,22738.2,21805.3,19575.6,25709.7,25749.2,19095.1,24249.4,12297.6,10798.2,16255.0,21836.5,14274.3,155481.4,13477.8,10934.9,23832.3,24805.8,0.0,406431.8,
85,0.834,8743.5,8841.8,10630.3,8656.8,9196.9,9865.5,10082.0,10177.1,11405.8,10012.2,19876.4,18731.1,11781.0,13194.8,142217.0,51690.0,18050.4,11904.1,16899.9,0.0,480920.0,
86,0.237,10617.2,14032.3,17386.3,15444.1,17059.0,19984.0,17620.3,13664.5,18811.3,10966.6,18607.1,32131.2,10516.4,14906.2,91048.9,29299.9,14035.9,14425.9,13852.6,0.0,371630.8,
87,0.197,11171.3,8906.7,10600.6,14330.0,7908.3,8866.3,11604.2,7125.5,12493.7,24610.6,15653.5,28151.1,21757.4,9081.8,142518.8,32511.2,21092.6,15277.1,23752.6,0.0,442585.6,
88,0.242,13088.3,19018.5,19577.9,22142.3,17654.4,20855.7,19934.5,13669.8,17418.8,23611.5,12350.1,23308.8,22147.5,11907.0,193224.3,12973.2,16431.7,17806.2,24879.6,0.0,395274.7,
89,0.476,18136.8,15129.4,19239.6,19567.2,15916.3,15566.5,18614.3,20768.2,25111.9,45546.3,23789.1,84054.1,50316.2,23779.8,37717.3,59139.0,70495.7,31374.6,35799.4,0.0,465023.9,
90,0.251,15286.5,21916.1,23237.2,22208.7,24325.7,24490.5,25757.8,16822.0,29430.4,16309.7,15483.7,33745.5,20151.6,12678.6,34567.3,27715.2,17215.9,21343.6,21909.9,0.0,418533.7,
91,0.212,19554.0,18813.2,18159.1,13929.8,16668.0,15626.8,16934.9,17628.0,16340.1,14333.2,18603.2,32852.2,17061.7,18879.1,38739.4,29347.8,27259.2,14065.7,14482.1,0.0,486959.0,
92,0.247,16815.7,22476.6,24271.3,18551.4,24949.6,25279.0,25226.0,16605.4,34370.1,19576.8,14389.8,39650.6,37084.5,15005.9,37415.6,18745.0,45906.3,24596.7,22811.0,0.0,489325.1,
93,0.2,15810.7,21485.7,31891.5,29200.9,25218.3,33440.7,33541.6,21183.8,42685.5,29297.5,12200.2,75277.6,42939.2,12528.7,50443.8,24886.6,50038.4,39772.5,25849.1,0.0,414588.8,
94,0.272,17417.5,21008.9,27363.3,23581.6,25232.2,27608.5,28014.7,27248.6,34767.3,27114.5,32084.9,59759.9,43885.5,18376.4,32767.9,28344.4,43683.7,31098.0,33381.0,0.0,420974.6,
95,0.19,10893.7,8585.0,9795.9,9417.3,12224.1,13420.1,10203.3,10663.3,15260.2,17252.3,14041.5,31821.4,21497.1,10941.1,73419.1,33433.9,31659.4,14441.6,12687.7,0.0,433692.9,
96,0.296,18528.3,26748.1,28773.6,25159.8,27811.7,30139.6,29323.0,20352.3,33179.2,35480.7,20765.0,46349.9,31293.7,13859.5,69669.5,44707.7,40807.3,25672.8,32855.7,0.0,359815.7,
97,0.198,11927.6,12143.9,19739.6,21558.2,15355.2,18214.1,16825.8,16591.7,17008.8,25512.6,16758.1,31691.7,26436.6,12848.2,42300.7,23374.6,30687.6,23712.8,25297.9,0.0,348736.2,
98,0.234,12415.0,13087.8,12657.9,11525.1,11942.2,13775.1,12864.3,9908.1,12378.6,9612.1,11475.8,27686.8,12231.1,8583.1,30522.7,30721.9,16939.0,10143.2,8891.7,0.0,350252.0,
99,0.22,9275.4,13657.7,15317.0,12373.1,18324.8,17896.3,17248.4,10996.6,15785.3,17781.5,19736.7,22501.5,8545.4,10928.8,26819.5,24265.9,15571.0,10482.4,12083.9,0.0,313853.5,
100,0.236,21557.9,24614.0,37693.4,40507.4,29898.9,46016.9,44850.7,24267.9,48405.1,39533.5,12289.0,51445.2,45679.5,14337.4,24415.9,29449.1,43964.1,46477.1,57861.9,0.0,365192.4,
101,0.382,14256.5,9486.8,10924.2,7950.2,9568.0,10948.7,8890.6,12664.0,12253.9,10112.9,17904.6,9402.3,8092.1,19180.2,55818.0,14312.8,10941.8,9476.3,7431.0,0.0,375089.5,
102,0.992,10200.5,12875.2,11592.5,13575.2,11199.5,13000.2,13422.5,85104.4,15619.8,17712.0,14707.5,18376.3,15291.9,9694.9,20612.8,14030.8,20352.7,14827.8,20731.7,0.0,374698.9,Background is turning purple. I'm going to close her off.
103,0.307,7993.1,10634.0,13341.7,13983.2,11346.1,10557.1,11438.9,10426.8,9528.8,8407.2,10059.9,13970.3,9601.0,8456.8,17791.8,13089.8,10792.4,9435.0,10072.0,0.0,390052.3,
104,0.648,11708.4,14639.4,16180.4,16969.6,16578.2,16932.4,15472.2,16562.2,17211.2,15869.4,12426.9,24112.9,20326.1,12695.1,21169.7,19111.5,18717.4,17193.6,17600.0,0.0,311317.0,
105,0.499,8366.4,8204.3,13246.0,10374.3,9701.7,10230.5,9579.1,15336.5,11322.7,7878.8,8141.1,9148.3,8045.7,5725.1,12127.5,10054.1,11387.7,11664.7,12069.7,0.0,348083.9,
106,42.239,128272.3,1099949.5,83415.5,184659.9,55273.8,32315.5,25953.3,194072.3,19747.0,23272.9,13556.2,14275.4,37182.9,104001.9,24591.7,15436.6,20408.3,18320.2,29644.0,0.0,572801.9,
107,21.51,28754.4,110109.2,30068.4,151274.3,25757.6,19618.6,19042.5,13685.3,14303.9,7900.9,30670.3,14996.0,10026.1,102288.0,27975.7,17220.7,10916.3,14337.8,16229.1,0.0,474073.9,
108,6.292,15481.0,21070.2,20135.0,19792.2,28294.1,20289.0,21094.0,18278.5,25389.6,18220.3,17949.2,27287.9,21918.8,13280.5,38588.8,30827.0,25989.0,22311.2,22312.4,0.0,492189.1,
109,1.429,27150.8,25827.0,34136.9,42320.4,28720.9,26931.9,34451.5,56016.1,30966.9,33817.0,74308.5,28306.6,28054.3,31358.0,30201.5,25871.5,20195.1,27210.5,39877.8,0.0,438761.4,
110,0.594,9934.8,20205.9,25577.7,22729.2,17943.0,23694.9,22674.9,15033.0,18347.3,17055.5,18959.7,17853.7,21883.5,197272.3,29230.9,26483.4,17663.5,24875.9,26558.2,0.0,587735.9,
111,0.342,12578.3,14109.1,14032.7,13590.9,12567.9,14446.7,13585.5,10370.6,11444.3,11056.0,10581.2,12101.1,14353.0,9225.2,13054.9,13772.9,13743.8,10804.7,12126.3,0.0,584675.4,
112,0.308,10178.2,11224.9,9231.7,10442.7,13703.3,12460.2,10900.1,14810.4,19016.9,13397.6,13448.0,25058.5,13442.4,16647.8,26795.9,19430.5,13166.3,11822.4,16938.6,0.0,471683.1,
113,0.802,17621.6,17871.8,18831.2,21305.6,18927.5,18370.1,21130.7,16661.1,18229.3,21932.5,16684.6,21168.6,21711.0,17129.9,30349.0,30855.2,22744.3,18828.3,19050.6,0.0,576453.6,
114,0.428,10662.9,12971.5,17115.8,13934.8,14902.8,16381.4,19339.8,63266.2,20307.9,20815.0,47017.0,133346.2,32203.4,12456.8,38357.2,201407.9,67595.9,19857.6,15325.8,0.0,505202.3,
115,1.617,8610.2,10909.8,11534.3,23526.0,9873.1,8733.9,9682.1,851733.0,15145.6,10596.9,10866.4,72971.1,26758.0,11858.9,18845.6,26206.3,34622.8,11862.5,12944.4,0.0,514581.0,
116,1.101,23749.1,36253.4,35552.0,70007.3,29087.4,30357.7,31527.0,117425.4,26896.3,37422.9,18603.7,29922.4,35540.1,141479.2,28587.0,17841.7,27971.4,29380.5,37445.4,0.0,385760.1,
117,0.603,11725.8,10290.0,6882.0,27326.4,8842.0,8656.8,8520.3,137546.7,9235.0,12680.0,9091.2,14505.6,10058.6,116909.3,29564.5,10413.9,15380.7,9502.4,12182.6,0.0,485960.5,
118,0.256,6974.3,6316.7,8363.2,8268.5,6281.3,8471.4,8116.1,7751.3,8404.6,14947.5,7808.5,25201.8,13187.2,6865.3,23682.1,22371.7,21348.3,9171.6,17312.0,0.0,463635.9,
119,0.169,9938.8,10847.0,8459.2,8959.4,10945.5,10362.0,10411.8,11701.7,11344.2,8027.5,9700.2,14479.4,9930.0,33263.2,17531.1,12338.1,7686.7,7071.3,11559.7,0.0,415346.7,
120,0.236,8055.9,9236.3,8246.9,8030.9,9650.4,9176.6,8094.2,13716.1,8883.0,7454.7,13253.0,10747.8,10417.7,41565.0,16456.5,13816.7,11171.6,9075.3,8622.8,0.0,345716.2,
121,0.336,13308.8,16622.2,14437.1,17557.5,13960.8,18530.5,16834.2,11175.3,15214.3,13152.9,15566.3,62732.3,21381.5,8126.9,27636.9,67033.9,83242.9,12337.3,11257.7,0.0,410131.0,
122,0.216,11429.8,17412.5,25301.2,18654.0,12549.7,18730.8,17187.1,21489.0,11818.1,20390.9,28729.4,230340.3,61974.7,8080.5,73315.6,183246.8,166162.4,11937.4,10413.2,0.0,427526.7,
123,1.186,16430.1,23785.6,26155.5,23046.2,21236.1,24502.1,29316.6,649562.5,26375.2,12353.5,20301.8,138989.1,25419.1,13011.5,40417.6,78633.7,58226.9,18764.9,17730.2,0.0,454880.1,
124,9.235,16871.5,45247.1,30379.2,24828.8,21182.8,25872.4,21839.7,95781.3,30882.7,14775.2,17801.4,102131.9,37634.2,118286.4,29124.5,79262.5,46960.2,23586.9,20393.3,0.0,468258.6,
125,0.372,13164.7,24365.0,20181.0,21363.8,12948.8,14082.8,13802.2,15985.2,17506.9,27316.9,8929.0,15711.0,22315.6,8431.7,11267.0,15614.2,19751.9,19881.3,26697.4,0.0,443029.4,
126,0.23,10526.1,18830.2,15506.4,12120.6,12308.8,9668.8,11329.3,11494.9,11517.7,16733.5,5190.7,18241.8,24338.7,7949.8,14135.0,14157.2,21290.9,14080.6,15788.7,0.0,441034.9,
127,0.22,16595.8,23330.1,19141.2,14298.5,24453.1,21116.7,21468.6,25730.4,30521.2,16134.1,16421.5,37857.5,25481.8,30715.7,27432.0,23521.1,20437.4,20940.4,14640.2,0.0,349589.9,
128,0.235,9262.2,19089.3,14347.1,18676.5,11068.8,10725.9,11332.0,10552.1,12024.2,11421.8,9953.2,57602.6,18883.3,13616.0,28200.4,30309.1,25219.9,10868.2,11568.1,0.0,361288.6,
129,1.001,29174.4,31155.3,28032.7,25969.6,33797.7,35102.2,32289.6,32905.4,48415.8,31272.6,24010.3,121139.0,50544.9,25386.0,41261.9,67738.8,71323.0,40862.3,24183.4,0.0,485801.2,
130,0.39,15096.7,20472.6,20160.5,28095.3,14008.6,17831.4,17810.2,63885.7,14960.5,25559.3,14708.2,56494.1,28983.5,11296.7,29145.2,33849.6,39313.8,20055.6,25999.7,0.0,499865.7,
131,0.33,7573.7,15274.2,12057.5,18282.3,8901.7,9089.1,10080.2,29507.0,16712.0,13739.2,10614.3,66787.7,20287.7,6954.1,35842.7,38952.7,34545.4,12985.1,8815.8,0.0,340982.5,
132,1.162,16964.8,21435.0,19661.5,52517.9,17271.3,16129.2,15207.2,140039.7,13929.7,30527.4,11497.5,87634.3,37605.0,15931.6,48671.3,73872.4,93536.5,15652.8,19622.5,0.0,456502.9,
133,0.284,7727.1,18328.8,20608.7,23482.2,16244.4,16315.7,19090.9,12561.8,22605.2,22880.0,22441.5,121288.5,35137.8,5586.6,32671.2,113459.4,89659.1,16586.3,18790.4,0.0,348646.3,
134,0.282,12041.2,21161.4,21498.0,22200.1,15503.8,18256.8,24854.1,13768.6,23722.1,22738.0,10438.3,74632.4,39796.9,6820.9,28553.6,40629.2,40529.9,27897.5,30135.4,0.0,466541.5,
135,0.504,8826.4,13436.7,12618.2,19216.1,13202.9,15630.3,14563.9,14430.5,16213.8,41644.1,6747.3,56742.7,35463.2,23594.6,19548.9,28772.6,47649.8,18891.4,30474.9,0.0,396652.1,
136,0.269,4533.9,5754.5,8545.1,17535.0,4286.1,6746.5,8122.4,4627.7,10061.2,10578.3,13757.1,15736.9,14376.7,9057.9,41642.0,19080.3,11939.7,10903.9,16769.5,0.0,343286.9,
137,0.313,12483.9,15212.5,13207.3,16202.2,14010.0,14485.8,15012.5,15166.4,15695.6,18857.1,19008.7,35085.5,26448.5,14734.8,25286.9,40491.1,26690.7,19752.6,19191.0,0.0,501383.2,
138,0.365,19305.2,27553.6,26300.0,18289.3,30763.3,33270.7,30375.8,20825.4,31704.6,20841.4,11280.9,43526.7,24929.2,8391.7,16056.7,59145.0,111496.1,15542.3,9437.3,0.0,473566.8,
139,0.315,17248.7,21976.3,23627.3,17130.2,22734.8,25238.6,21513.3,17455.6,25009.2,29116.2,27932.6,155691.3,47758.3,9377.7,44692.8,130374.7,147442.2,16141.6,14442.1,0.0,471160.3,
140,0.348,11308.3,14087.1,17196.6,16211.1,14400.5,21098.4,20171.6,14288.7,20839.0,24599.9,16391.2,93760.9,33155.4,7832.2,36474.6,58541.7,77995.7,17036.2,16663.6,0.0,410685.4,
141,0.264,27725.9,32326.6,31159.5,30036.6,28555.0,33138.6,30921.1,19104.5,22839.4,26533.8,19397.8,83687.2,21468.3,18672.2,53531.6,72561.6,81776.4,24978.3,23279.2,0.0,364120.1,
142,0.244,11001.6,12471.0,13688.7,10729.8,15759.6,14078.3,11497.3,16960.5,19080.3,13315.3,18252.7,102700.9,31835.5,10165.4,34849.9,61751.5,39760.6,14818.8,16804.6,0.0,431744.8,
143,0.194,10956.2,13473.6,11665.0,7318.3,11570.9,10310.3,11206.6,12989.6,17015.4,16046.1,19160.8,69722.3,27270.1,11961.6,37278.6,57285.4,39848.3,14271.0,15337.8,0.0,410171.0,
144,0.187,5852.7,7615.4,11542.2,10130.9,11599.1,13028.4,13832.5,14093.1,24096.7,12644.7,14686.3,33733.8,16921.0,11167.5,18590.0,16220.2,17640.4,14804.9,11187.3,0.0,258757.1,
145,0.204,9401.4,20855.2,23920.5,17855.5,16883.7,21575.3,26730.3,18009.5,25124.3,21146.6,23641.4,84654.3,24189.7,11209.0,65201.7,55615.0,30096.3,19132.4,19622.5,0.0,346809.6,
146,0.249,18369.7,26501.5,29145.8,21819.1,24647.1,26793.9,25249.2,13699.9,19118.6,10969.7,7115.8,24513.0,9466.1,8336.3,9015.0,40936.6,29168.3,15908.8,10601.5,0.0,304765.6,
147,0.227,12345.3,23919.2,24089.8,18677.3,20501.9,19964.4,20290.0,17144.2,24155.9,21891.0,13769.6,21387.8,23832.0,10644.5,25855.1,21524.9,22903.7,20864.2,23987.2,0.0,338736.1,
148,0.24,17162.7,23963.0,27192.0,29421.0,17894.6,21385.8,24054.4,16023.2,24884.2,30665.7,21581.9,90077.3,55056.2,11310.3,43259.9,74512.8,39073.3,37122.4,41583.3,0.0,329340.2,
149,0.174,7789.0,13373.2,17589.8,15740.7,14122.2,18844.1,19879.6,8248.9,20859.7,21336.9,18279.8,67984.9,25378.8,7039.1,37147.1,68225.2,21567.4,17841.6,23299.5,0.0,316091.6,
150,0.237,11917.1,13972.3,14592.0,16425.5,15036.9,17213.6,16545.1,16807.4,24761.7,26963.8,18894.9,104029.5,38964.4,12747.6,39637.9,51447.5,40740.5,23958.5,22693.8,0.0,289175.2,
151,0.547,18928.0,20842.7,31177.0,34714.0,28194.9,31093.2,33361.9,125680.5,34668.2,34661.0,9938.4,62794.4,41882.5,12241.3,43542.8,57664.1,47576.2,37012.3,33225.3,0.0,309651.5,
152,0.609,21092.2,25915.4,28365.3,33477.8,26634.1,25330.6,28839.8,50468.8,28284.5,29625.0,19033.8,55955.7,43902.6,19932.6,115711.7,31435.6,43173.5,35144.7,25553.7,0.0,434611.0,
153,0.39,13489.2,15616.6,15183.9,25059.5,13391.7,15689.3,15390.7,73634.8,14481.4,11476.2,24651.3,83782.6,16649.1,9448.3,72059.3,98364.5,28235.5,13418.2,15789.6,0.0,429691.0,
154,0.559,29541.0,36404.1,40139.0,39809.4,34540.8,38964.0,38391.7,25341.1,26604.9,19342.2,26855.4,68584.9,17655.3,21924.8,30033.2,71518.2,71836.4,31474.7,36216.5,0.0,463639.2,
155,0.314,12368.4,12789.1,10508.4,21048.0,14035.2,14465.0,12103.9,12975.1,18671.3,27386.2,20003.6,160012.2,57980.5,28352.6,52012.0,124601.3,182542.0,11140.0,9399.5,0.0,425397.9,
156,0.207,7828.3,11878.2,13591.2,10580.6,11526.0,16527.9,16971.3,6825.5,24934.8,15491.5,23520.9,134133.4,44898.1,8425.8,66776.1,101142.9,58448.7,15417.1,11129.8,0.0,492927.6,That's still strong and flashing.
157,0.307,15983.0,19634.5,25909.1,25136.7,22835.7,29306.3,29405.4,165941.8,35730.6,13723.7,9283.8,64114.4,24883.9,10552.6,49306.2,47709.3,60062.0,22739.7,18151.5,0.0,428320.7,
158,0.788,33842.2,45307.2,46382.6,34798.2,41686.4,40011.1,38168.7,122626.0,26976.5,12241.2,28775.3,84175.5,19468.0,15639.9,32352.8,123239.4,74969.0,24712.5,17813.0,0.0,534913.9,
159,0.345,10563.1,21363.3,34215.8,37953.4,17325.9,23747.0,26007.1,18478.9,16649.6,22019.4,11551.0,69648.8,20541.1,7824.3,33515.2,52864.5,32408.6,19618.6,17753.8,0.0,400422.2,
160,0.269,6511.4,22642.8,38472.4,26892.2,20623.1,28997.2,32101.2,16242.2,48380.5,28208.0,11118.0,140830.7,48662.8,55246.3,61477.3,51154.7,112595.3,33481.3,17877.3,0.0,405813.6,
161,0.466,15431.6,14178.0,11869.3,12434.8,13996.6,14001.1,11511.3,17009.4,16623.5,18659.9,15294.3,75560.0,20076.9,19848.0,49416.6,41439.8,46090.8,8492.3,14106.7,0.0,365318.0,
162,0.28,9706.6,12123.5,21954.0,22580.5,13296.4,16690.5,17002.9,15096.2,26885.4,25618.8,17066.8,62408.7,27973.4,79421.5,30873.6,33340.9,51594.7,17216.3,15422.8,0.0,372884.1,
163,0.227,9377.6,10630.9,11498.4,10138.8,10119.0,9503.8,8958.5,8465.0,11026.1,16561.5,16517.3,87596.2,10611.0,26645.7,50877.9,98692.7,43448.4,9669.2,11818.5,0.0,343683.1,
164,0.232,11204.1,22502.6,27834.0,20557.6,25814.7,29866.9,29113.8,16522.5,35325.5,41399.2,15525.3,86321.5,64481.6,9084.7,114971.5,52255.3,98599.1,32084.8,30511.0,0.0,328894.5,
165,0.246,6058.0,11070.8,15948.6,14041.2,11951.1,18601.4,16566.7,9451.2,19970.7,24448.5,26317.3,81398.6,25079.2,7980.9,35076.3,88813.7,80769.6,14751.6,26971.4,0.0,335274.1,
166,0.227,9485.1,10011.0,13339.0,12524.1,12583.8,13323.4,14870.2,12602.7,26221.1,54318.3,16974.0,163943.8,73684.7,8116.4,47175.2,94926.3,134938.7,29884.7,25606.7,0.0,274148.2,
167,0.224,12444.5,18449.4,20320.4,15985.4,19005.1,20102.4,19387.4,17429.5,28351.3,37127.0,31804.8,166856.0,60229.3,7920.6,133255.6,157635.0,122131.3,20228.6,15907.5,0.0,296430.7,
168,0.7,14304.3,26145.0,28233.2,23186.7,21497.3,23808.2,25842.8,17546.1,29344.9,16673.4,22392.5,149934.7,38450.3,14678.7,44698.8,100475.6,108816.7,18505.2,22009.8,0.0,327969.7,
169,0.189,12076.2,14703.2,25970.6,31895.3,22460.6,23397.7,28589.4,19681.7,38386.0,46017.1,12663.3,105022.3,70773.9,14467.0,29011.6,33990.4,73485.3,42687.7,47954.3,0.0,342146.1,
170,0.267,11675.6,15780.8,17910.8,13485.8,19344.8,20277.6,17112.8,19200.4,27019.8,28887.1,26970.7,61168.7,31899.2,20831.0,32182.2,30147.5,43529.2,20410.1,21701.7,0.0,319516.2,
171,0.544,19142.1,26531.5,31421.7,34675.4,25226.1,30338.9,31692.2,18171.2,23501.6,40226.7,20205.1,22741.8,36585.6,17631.7,18404.3,28801.7,29587.4,31651.5,42607.3,0.0,267616.3,
172,0.233,14265.1,18118.4,16708.8,13426.1,16823.5,16388.2,16685.5,16025.9,22897.1,29362.0,10585.6,51703.3,39575.1,10427.2,17031.2,11155.5,25339.7,26631.0,17616.8,0.0,386483.0,
173,0.203,11903.4,13892.2,14144.2,19732.8,13806.2,12164.3,16110.2,11567.7,22719.3,48466.1,16329.3,117851.6,89395.7,6704.1,31347.4,47890.2,69877.5,47310.5,46312.1,0.0,347357.3,
174,0.25,12052.0,11540.7,11697.9,10252.9,10805.6,13096.7,12295.1,6841.0,10964.9,10557.2,9697.9,15856.5,10860.1,10540.3,26609.4,18713.9,15684.5,8314.4,8842.1,0.0,334555.5,
175,0.209,7610.7,13047.5,17276.2,16461.5,15951.7,17398.5,17282.3,13235.0,18132.7,16753.6,7938.7,23527.3,17907.2,6275.3,43923.8,42953.6,22965.1,17283.1,15092.2,0.0,398057.9,
176,0.273,15338.2,20623.3,22917.8,26102.1,22755.5,25867.0,28755.4,19594.7,31903.3,27421.9,9660.5,56096.3,42687.0,11843.8,37186.9,23600.9,36375.7,32534.4,25984.6,0.0,327565.7,
177,0.233,17911.1,21444.5,26208.7,31585.9,24486.8,33309.0,32282.0,28541.8,33176.6,27122.3,22276.2,45616.0,35851.9,28856.9,42243.0,26074.8,28956.5,34158.5,34802.9,0.0,341030.1,
178,0.39,8351.8,9331.2,9387.4,14021.8,14033.7,11534.4,10853.2,15072.6,17338.5,25242.0,16612.6,50153.3,22982.7,11769.5,34624.2,17101.3,21295.6,13026.6,18742.7,0.0,374079.0,
179,0.178,12989.4,17093.7,25438.0,35494.0,18477.6,21727.3,31556.6,19753.0,34196.3,26737.2,16455.4,43936.3,35251.0,10851.8,21443.5,32788.1,22823.6,37368.1,43787.3,0.0,368224.4,
180,0.28,12534.7,12920.3,14893.4,20919.4,10816.8,13673.1,15572.6,16651.6,20441.0,27630.6,36487.5,52582.3,28931.3,20928.1,60038.7,84861.2,31251.6,20589.1,24480.0,0.0,305277.8,
181,0.28,13711.3,17031.4,19275.0,22208.6,17600.4,20712.6,22026.9,16772.6,32731.5,28430.2,25790.4,76842.7,33319.1,15763.0,61867.9,75020.2,37016.6,29245.4,31706.7,0.0,358130.1,
182,0.208,11987.0,14042.8,18130.6,20673.4,17834.1,20131.0,18868.8,8778.5,19818.8,25508.8,14116.9,27897.8,23032.8,8353.9,75840.9,25337.1,37550.0,18047.7,20837.0,0.0,331171.2,
183,0.235,22657.9,27850.1,34923.6,27872.3,35662.7,40544.9,36795.6,24278.0,44541.0,11845.0,10432.0,31669.6,14635.6,12283.1,104181.1,34734.2,13846.3,29805.5,20173.0,0.0,361971.5,
184,0.194,9290.6,11106.9,14091.0,11844.3,15536.7,17667.8,17604.5,10650.2,28076.4,19876.7,12831.6,118327.8,44818.1,5748.9,41263.0,55440.9,72287.7,16970.0,11952.3,0.0,337386.8,
185,0.602,27391.7,30456.2,25255.4,19959.0,36080.6,33081.7,31934.0,29642.2,42274.9,45413.3,29522.4,80127.8,37523.8,25073.9,70084.6,103266.7,76581.9,25064.5,26824.5,0.0,315129.4,
186,0.218,15889.9,17343.7,15366.7,18270.5,16512.3,20299.1,17857.0,16962.0,37653.1,26249.2,10973.1,144861.8,47431.0,8528.4,34524.0,34739.0,42237.9,25334.4,20015.7,0.0,292299.4,
187,12.178,15920.1,31029.7,32706.7,23847.0,23325.3,28953.1,27834.0,13740.0,21363.9,19374.2,14589.1,80020.0,27665.4,7937.5,61117.1,86008.8,63612.7,23762.7,19836.0,0.0,233730.1,
188,0.587,20041.5,24397.7,24990.4,22703.2,21598.9,24019.6,23777.1,19310.9,24869.8,17354.5,16891.8,26328.9,19277.3,15580.2,55853.8,27429.2,25650.1,19748.2,17360.4,0.0,280958.1,
189,0.533,15471.0,21808.6,26146.5,20672.7,20962.7,21378.7,23162.2,28971.6,21089.9,14292.3,9957.0,12232.5,17971.0,10992.7,30815.2,10223.1,13850.9,21945.9,15510.1,0.0,241419.4,Back down. A lot of pinkish-purple flowy misty thready fine silky stuff.
190,0.248,10510.3,11025.1,11510.5,17830.7,9765.2,11497.6,9984.9,26568.4,12181.3,12642.2,6444.9,19508.6,12317.6,8312.4,17898.6,13026.4,16939.2,11769.5,12178.6,0.0,238687.1,
191,0.269,15507.9,20037.9,19734.6,15283.2,20970.9,22366.8,23598.4,21251.1,22764.1,23832.1,24031.9,112720.8,34525.2,16824.9,74683.3,97896.2,82357.9,23179.3,14488.6,0.0,294309.7,
192,0.385,23633.8,40802.8,55925.6,61010.6,40845.2,54882.3,61908.6,32375.9,76078.6,108017.2,22369.5,168804.4,134509.4,20461.9,45022.2,74992.1,204534.6,89182.5,88556.2,0.0,178188.8,
193,0.175,6128.1,8037.8,11742.3,12135.1,9613.6,14374.4,15770.3,9944.1,14944.7,12220.2,5295.0,60028.6,32970.5,5611.9,11511.4,13683.5,38864.9,20585.6,15184.4,0.0,220387.9,
194,0.284,14451.4,16141.8,25961.2,25832.4,16810.2,19182.0,26091.1,60040.3,19111.9,17258.8,8894.8,18845.6,23178.8,11400.0,40314.3,12907.3,19290.0,21840.5,23577.5,0.0,271036.6,
195,1.189,8971.9,10843.9,17611.0,21641.0,9164.3,11789.3,14539.1,42957.4,14923.4,19042.5,11956.4,49278.2,17828.6,9394.3,36662.3,23402.9,34788.7,17144.1,27595.0,0.0,214221.0,
196,0.245,21735.4,17923.2,18945.6,19778.3,19185.4,20784.7,20498.6,25568.3,23929.9,16101.7,15813.3,24686.2,17865.4,19862.3,74725.4,20011.1,18098.8,15771.9,19302.6,0.0,337850.7,
197,0.527,7210.0,11891.4,17304.9,21140.3,10795.8,15069.0,17586.8,13066.1,13420.6,24595.4,8319.7,24265.4,34509.8,7469.2,28036.9,7696.9,17988.8,29113.3,30341.7,0.0,282961.0,
198,0.449,8552.1,10527.3,14704.3,11836.1,12585.8,13328.0,14965.0,33598.6,16341.3,8503.3,21982.1,72961.6,24145.3,7257.7,30019.2,82294.2,46097.3,14831.4,9335.9,0.0,274815.3,
199,0.405,21730.5,28894.0,37909.4,40282.9,23318.2,29902.0,31630.5,41982.3,25110.4,25302.5,13939.7,70437.3,31954.9,17261.9,47256.1,42619.8,27005.5,27998.8,28100.8,0.0,322021.7,
200,0.513,10840.9,14599.7,16326.4,24853.1,12377.0,14544.1,15224.5,15114.7,14371.2,25870.6,18454.7,30108.9,25776.5,12186.2,55646.7,20470.5,37309.0,16947.0,26774.3,0.0,303666.8,
201,0.206,8442.3,11739.0,14704.6,28102.1,12557.1,13209.5,13144.7,25854.3,15410.9,13148.1,16881.7,72669.8,23466.1,7734.9,41643.3,42988.9,33195.2,15856.6,11834.7,0.0,312502.7,
202,0.174,6831.6,7199.6,10836.5,15575.9,8913.8,9857.5,11188.6,9386.9,11641.3,17945.6,7575.3,49131.1,27040.0,5940.7,27851.1,30655.4,30999.4,15598.8,19153.6,0.0,331794.5,
203,0.243,4041.6,5670.1,6401.9,10047.9,6468.3,8335.6,8669.1,5484.5,14125.6,43815.7,6813.5,57689.4,51538.2,4266.1,91597.0,15860.9,102907.3,19524.3,17637.5,0.0,347851.3,
204,0.404,8660.8,11696.9,13569.2,14127.2,12871.2,17031.5,13687.7,13191.2,23071.4,11673.8,9657.4,30261.0,16673.2,8689.4,15317.2,29056.9,12900.5,17057.3,17076.9,0.0,356966.0,
205,0.225,16297.2,21158.1,18511.6,18481.8,23476.3,22355.3,19148.3,26181.9,27049.1,22292.6,12657.1,47562.2,29583.5,16468.5,38654.0,28491.2,35617.1,21339.4,20876.7,0.0,332357.6,
206,0.343,25063.4,28260.8,30915.6,29264.9,30179.3,33817.5,32137.8,28546.8,34229.1,28150.2,15341.0,41636.2,31991.0,21234.4,47253.8,24482.3,22329.2,32211.3,26661.0,0.0,347195.9,
207,0.653,10576.0,12127.3,14423.2,16598.8,12004.0,12975.2,14411.4,10483.7,15873.3,22594.5,9452.4,22130.1,16933.7,9765.8,24394.6,9234.0,17057.7,15909.1,21426.3,0.0,324589.3,
208,0.195,13732.5,15839.9,20062.5,19165.6,21256.5,26535.0,24247.4,18011.9,33368.2,22269.4,10796.4,31336.0,25894.9,7813.2,26309.8,11699.5,17980.1,30027.1,26143.3,0.0,295474.3,
209,0.227,11815.4,15834.3,20163.6,21673.2,15828.4,19208.1,20854.2,11142.1,17002.9,20985.5,8504.6,26534.3,23828.5,9120.8,18637.5,7789.9,21809.8,22482.7,19271.3,0.0,306278.0,
210,0.253,7942.1,8799.5,9856.2,12377.0,10080.8,9132.1,10713.3,11914.0,23583.8,22129.4,14909.5,86231.1,40281.1,13727.3,27558.5,33177.0,34409.0,18479.8,27615.2,0.0,235649.0,
211,0.259,10927.3,11242.1,12794.5,9707.4,11657.3,11625.5,13177.9,14063.0,15204.6,21014.3,10816.6,29825.3,17071.4,13592.5,54256.8,14166.0,24256.2,14792.3,15611.3,0.0,283401.6,
212,0.251,17121.2,21175.2,28307.9,22165.4,21820.6,27959.7,27426.3,25048.7,32346.5,20954.2,17223.9,49386.3,25564.0,17408.2,37921.3,23975.1,24225.5,24607.3,22756.7,0.0,274820.0,
213,0.253,19721.9,20943.0,22809.2,19214.8,29057.8,26585.5,26242.5,22432.4,31428.9,65894.3,33789.4,148260.2,72761.8,21333.5,38683.3,162748.3,250074.2,23084.5,22863.9,0.0,242291.5,
214,0.263,7267.9,12910.2,15113.0,15144.3,18995.9,23381.4,20014.2,10456.8,21611.2,27778.5,13146.0,54179.0,37452.7,7530.4,34751.8,44905.1,46760.1,20929.2,24807.6,0.0,253700.1,
215,0.228,7807.8,9095.6,13022.1,11044.1,13079.0,15271.6,12365.4,8360.1,15480.6,10243.1,7492.4,12956.3,10408.9,8913.8,49141.8,15213.8,13652.5,10873.5,12581.9,0.0,248966.0,
216,0.216,6978.4,6909.5,5009.8,4094.8,7628.1,6733.9,4976.9,6359.0,8285.7,7201.7,6905.9,24704.0,14690.4,7459.6,8583.9,9400.7,13666.2,8208.8,7954.9,0.0,234626.7,
217,0.266,16452.1,19705.1,20393.2,17154.5,20602.8,24143.8,21030.4,15551.3,18131.6,20242.3,9688.3,24396.7,32697.1,13605.2,15716.9,10515.5,27073.1,23746.6,32533.3,0.0,258406.2,
218,0.209,8293.9,10864.9,8066.6,5573.8,13143.6,10102.3,8346.7,12417.9,16479.5,12327.0,9241.3,26569.7,16383.0,7113.5,65805.8,21010.2,20868.5,9009.4,10807.2,0.0,246186.6,
219,0.27,6545.8,11838.6,14756.9,18335.4,13140.5,18153.0,19668.3,9699.8,22140.6,24249.8,9919.9,54636.4,33002.7,8915.4,30050.5,20107.5,51701.4,21360.5,24969.3,0.0,260448.0,
220,0.314,21806.1,24235.0,30845.0,34398.6,29052.1,32933.9,37823.8,27909.5,47434.3,40090.1,22732.1,104645.0,51221.5,22893.5,39495.3,46854.4,56462.3,41999.6,37272.9,0.0,229035.2,
221,0.189,6832.8,8419.9,16127.0,18266.2,10245.2,12843.5,15280.8,15597.9,25223.5,70425.3,12245.9,133915.8,77904.4,10132.8,47139.3,81052.6,199741.4,25064.2,34665.5,0.0,197766.8,
222,0.178,4022.2,5357.8,6437.3,6042.8,6529.1,6176.7,4926.9,6986.1,7272.3,5192.6,12415.9,16105.2,3171.6,6199.9,84641.4,30638.5,5308.3,4398.6,9396.7,0.0,226864.7,
223,0.254,13720.3,16901.9,16561.0,14414.2,27633.3,29169.4,22250.2,29955.2,31215.9,24344.7,22507.1,54171.0,36282.2,18172.7,36778.0,32012.4,46387.6,17870.0,18915.4,0.0,266652.7,
224,0.437,10889.6,14052.2,16152.8,14654.0,16470.0,16900.5,18022.3,15567.9,23186.6,19347.9,17128.2,41913.2,28215.1,17906.1,26935.8,20964.7,44268.5,20657.6,11798.4,0.0,222983.8,
225,0.266,11103.0,12555.4,13034.9,10731.6,16306.2,19287.7,16534.4,13881.8,24366.7,14232.6,8144.6,43533.1,25116.5,9548.3,126846.8,17873.8,25761.4,18578.4,13523.5,0.0,195019.7,
226,0.23,8144.8,8325.0,10293.3,12458.7,10313.4,11518.5,12794.8,10780.0,16303.1,20648.5,8379.2,84593.4,36521.3,5902.6,34710.6,24674.9,53569.5,19417.6,15617.5,0.0,271253.6,
227,0.369,9438.7,8640.3,7303.4,5054.6,6786.1,7086.4,5528.3,7620.3,9461.0,11109.4,12017.9,54985.1,18770.4,8651.7,28051.0,21268.5,30063.5,7394.2,4645.0,0.0,211780.1,
228,0.221,12201.2,14698.3,19420.0,17619.5,18787.4,18422.6,22118.5,16638.0,30678.6,18719.1,6502.8,72642.5,33721.1,10587.2,29162.7,22437.3,38717.8,25771.2,26730.2,0.0,251091.0,
229,0.205,13699.1,20291.2,19374.3,18707.4,18013.6,21518.6,19815.9,21641.7,29932.8,14192.8,24492.8,131561.2,37969.0,13744.8,44011.5,85274.8,68392.6,23002.5,16148.4,0.0,241231.9,
230,0.298,14295.8,13768.8,13775.3,16286.2,19939.6,18483.6,18829.9,22014.5,32282.4,20968.7,21320.4,84214.2,37598.4,16432.9,57452.8,38106.7,37174.4,27402.0,16367.2,0.0,207473.4,
231,0.226,10173.5,15156.9,18341.8,17208.6,15415.9,20405.8,19329.1,15646.1,26013.1,24333.2,12841.4,52732.7,42157.6,11356.6,31580.8,22491.0,27397.9,26398.7,32885.4,0.0,272799.9,
232,0.251,5408.1,6363.5,8087.2,7581.5,9665.1,10752.0,8304.7,7015.8,12132.2,7504.4,5465.4,21251.6,10722.6,8108.7,16628.0,13011.9,14040.4,9865.9,8797.9,0.0,214199.9,
233,0.212,13765.7,15454.5,15341.5,12047.4,15685.5,17144.1,17842.8,12443.8,18764.0,17694.3,12198.2,46247.4,32427.1,11059.0,21653.1,24159.0,40005.5,16604.2,16897.8,0.0,254007.5,
234,0.418,13869.8,18522.6,19622.9,18881.0,16143.6,21304.2,20886.1,16926.5,23590.1,17756.2,17916.7,24091.3,17544.8,14600.5,36960.9,29824.4,21267.3,20537.9,19856.6,0.0,238240.8,
235,0.194,11802.8,14241.2,17095.2,21769.0,14641.3,18473.3,19065.4,12515.1,19678.9,44219.6,12840.6,22279.8,31173.9,9932.2,27438.5,32013.8,79988.5,24053.8,33436.8,0.0,269647.8,
236,0.246,16149.2,19176.0,19684.5,18677.5,19712.0,20319.0,19048.4,16952.3,23361.1,17404.8,15456.1,35657.8,23198.5,14866.8,47077.1,24774.4,39704.5,19266.2,17612.8,0.0,208790.7,
237,0.216,7982.6,8650.4,10344.8,10076.6,8978.4,9990.0,10972.9,7875.6,13812.9,17038.4,7789.0,47019.6,27201.4,8129.9,14804.5,21778.8,33916.0,21293.6,13405.4,0.0,238921.4,
238,0.24,19729.3,21421.5,23590.5,16386.3,22391.6,24101.4,21484.5,15555.8,18779.6,12662.3,10257.9,44883.0,18008.5,12159.1,69047.1,36216.4,46291.0,15509.0,10715.2,0.0,307321.6,
239,0.25,17794.5,23706.6,38120.7,26043.1,25310.7,28135.3,28558.3,22534.3,28977.0,21188.0,21546.7,54010.6,23500.0,14460.5,21840.4,30192.3,33513.8,22821.5,24224.8,0.0,252906.2,
240,0.589,18104.0,16548.3,15409.5,13152.2,20085.5,21248.0,15970.8,16457.1,20703.0,22986.5,17096.8,73354.4,157726.6,19023.1,25970.2,63413.7,68337.9,16434.6,14217.8,0.0,262373.2,
241,0.178,8932.1,10356.0,12696.4,13099.9,10714.1,14531.9,15417.1,11406.3,17840.8,20614.2,13375.7,62861.9,28237.2,8264.1,46865.4,34979.9,35643.1,17249.3,21845.8,0.0,274158.0,
242,0.232,7199.8,7118.3,9880.0,12582.3,8038.5,8996.5,10452.1,12672.7,12030.0,20882.1,10939.7,40690.3,24480.5,9337.3,27501.8,25251.4,25914.7,12470.4,15271.0,0.0,270534.6,
243,0.197,10668.3,11730.3,10840.5,16975.0,12937.7,12842.1,15476.5,13412.1,15751.0,35598.8,12329.3,53570.6,60275.6,9677.7,20386.4,26809.6,60577.2,29985.3,30415.3,0.0,196844.6,
244,0.24,12872.2,17661.7,20009.8,18612.2,13732.4,18074.3,18212.3,13221.3,13305.9,8623.3,7985.8,29555.0,13265.4,8938.5,38782.6,21085.6,27807.0,10571.3,14822.6,0.0,238785.9,
245,0.261,9877.2,9210.6,10011.3,7826.3,10903.2,10449.3,9711.3,13184.5,12958.9,18394.2,17158.7,55801.4,25086.9,13574.9,35479.5,46948.9,74537.8,6356.0,6180.4,0.0,229676.5,
246,0.486,22574.9,24586.7,24571.9,24379.0,24494.9,28228.4,30974.9,23619.2,32256.3,30351.7,16038.9,81323.8,48062.8,16198.0,43002.3,39318.0,50506.6,32704.8,24903.1,0.0,207319.1,
247,0.237,11983.0,11080.6,14755.5,19501.1,11009.7,14073.1,14394.0,13160.0,17311.1,34449.9,9092.8,37561.1,34405.6,10497.6,14433.8,21670.8,43148.7,21062.2,26043.1,0.0,265052.1,
248,0.325,12431.2,17710.0,22556.5,25767.2,19210.6,21022.1,22809.3,18523.1,20112.8,18211.3,14918.7,59775.0,22971.9,16140.8,29705.1,38345.6,15188.7,23402.5,27619.5,0.0,203837.7,
249,0.236,14977.6,23521.1,20487.7,21974.6,20675.5,25646.0,25498.2,16764.3,25266.7,25211.9,16916.9,52499.8,34463.8,13312.9,31870.2,37343.8,25642.3,26700.0,24776.1,0.0,201212.5,
250,0.397,17872.5,22465.9,22048.2,21288.3,20992.1,26104.2,22366.8,9320.9,29080.1,27355.3,17568.2,29204.6,24397.6,10797.0,16397.5,24089.7,29172.0,22538.9,29682.5,0.0,248739.2,
251,0.23,24092.3,26961.4,30998.3,30000.2,25006.9,25195.2,29669.4,23411.8,29450.4,53858.6,21365.8,99710.0,78895.1,18380.1,36432.0,63382.2,137023.8,34955.8,27850.9,0.0,182313.1,
252,0.226,10201.7,12691.5,16555.1,19456.4,11663.1,14441.3,19317.8,8700.7,22347.1,31002.3,4782.0,83249.2,37661.6,5756.8,44045.3,20669.5,32114.2,26833.0,26824.6,0.0,224708.9,
253,0.23,16372.5,21009.5,21160.7,19217.2,22221.8,25482.6,23841.8,15440.6,33273.3,41332.9,15455.2,162962.4,55213.9,9640.1,29033.2,116657.6,150364.8,23852.5,16770.4,0.0,210759.0,
254,0.257,22867.1,30619.2,36417.1,28879.6,38406.5,45208.4,39723.7,33002.1,52220.6,11760.1,10606.0,35874.4,36788.6,15097.3,21842.3,13689.8,26431.8,38011.3,24115.8,0.0,235676.4,
255,0.291,15193.8,21689.0,31037.6,26319.6,22850.8,35181.0,31736.4,13358.8,31161.1,26919.3,16237.2,28751.7,33362.8,13534.1,20408.6,27692.7,19024.9,37507.8,30535.8,0.0,208898.9,
256,0.21,11817.4,19489.9,19980.8,14109.3,19594.6,22631.9,20943.1,13621.8,18060.1,20074.0,10600.6,60955.8,25489.5,8825.2,20916.9,53335.0,32641.7,19641.4,22113.2,0.0,230668.7,
257,0.204,13789.8,26256.2,35522.6,31313.6,29515.7,37987.4,40029.8,16841.6,38341.2,14310.0,26987.6,53674.4,20415.4,10899.6,61042.1,79999.2,24673.5,34660.5,22632.0,0.0,215128.5,
258,0.231,15384.1,17098.7,21223.4,18061.1,22289.1,23063.9,24273.1,20161.6,33335.1,20042.8,15404.3,131959.9,39433.4,15211.9,112660.0,42062.3,32903.9,24191.2,24209.6,0.0,214154.4,
259,0.333,12208.4,21396.1,20446.3,16840.2,16139.0,22407.2,18087.8,7658.0,12236.5,15478.4,16807.6,115740.8,27631.8,9411.3,34758.5,92237.8,57577.4,14812.4,18777.0,0.0,229705.8,
260,0.305,14377.2,13102.0,15628.0,9574.8,17306.3,22329.1,18281.2,21316.7,32830.7,20129.8,24393.8,117045.8,28386.8,17129.5,54967.5,83634.0,55969.0,14952.3,12776.8,0.0,143487.4,
261,0.253,7456.2,8973.1,11713.1,8833.5,10363.4,12464.0,13566.3,10400.2,16721.1,10579.0,14673.3,60990.2,21283.0,9883.7,38024.5,32544.7,17556.5,14445.6,9579.7,0.0,180009.5,
262,0.222,18097.5,19666.8,21765.3,15420.1,19763.3,22017.1,23453.4,23561.9,29675.1,29688.9,21637.6,101407.7,45606.9,16886.1,48413.4,48724.6,45472.2,23952.7,35952.9,0.0,190910.6,
263,0.253,13589.0,14539.3,16166.6,14655.3,15649.8,17868.9,16124.6,13551.0,17536.0,18953.7,28836.3,65818.5,25860.1,16885.9,35866.5,116141.0,65555.8,15140.9,19881.7,0.0,185034.9,
264,0.194,16170.8,22362.5,29761.6,24188.7,21858.2,28127.8,27960.5,14645.4,25556.1,28115.0,21372.5,138019.3,37537.4,7415.4,43033.8,67348.3,105079.0,25881.1,18454.0,0.0,208657.4,
265,0.246,16547.9,20110.7,26057.7,26010.2,23894.5,25735.0,28201.3,25364.8,39574.9,19325.0,23993.5,76265.6,39609.6,16666.5,44044.2,44755.3,46874.0,29040.3,27293.7,0.0,234287.3,
266,0.229,6655.2,11767.4,14222.2,7078.5,12263.3,14886.7,12366.8,9997.9,15415.6,11149.5,8734.8,16945.1,10407.5,5326.0,37839.4,10727.5,13233.6,10045.1,8047.7,0.0,216772.6,
267,0.189,7391.0,8302.3,9542.4,9223.4,8575.6,8954.7,8397.8,7674.3,9659.8,8192.0,9797.2,17047.9,13164.1,9477.8,17328.3,12244.1,14694.2,9010.1,8994.1,0.0,201246.1,Some more bluer stuff coming in over the purple-pink flowing silky stuff.
268,0.91,11921.9,12937.4,12654.1,14457.2,13795.0,12652.0,13099.7,15570.2,16414.6,18858.1,8835.7,29922.1,20962.8,12645.0,30372.9,30182.3,45998.0,16891.1,15571.6,0.0,150420.9,
269,0.615,7555.5,11338.0,10845.6,9106.5,9803.7,10421.5,10400.3,14969.7,17993.3,14358.8,8447.6,34817.5,17775.6,7838.2,22111.5,35279.6,23405.2,13535.5,9171.7,0.0,204935.6,
270,0.471,14348.3,15334.0,20490.8,23320.6,19020.3,20812.4,20314.5,22754.5,26817.9,14465.8,19084.4,73554.7,32854.9,15802.6,41396.0,38763.7,36065.8,24724.5,19120.7,0.0,218227.1,
271,0.33,9548.0,11657.8,13644.4,13206.4,11585.6,12792.0,13277.0,9204.7,10845.8,25271.3,19085.5,26250.0,27614.3,10725.2,42985.2,41007.8,52241.8,14798.5,21084.8,0.0,178093.6,
272,0.191,12112.6,12945.8,18109.9,13353.4,14953.0,16503.9,16744.0,13320.3,20459.4,15420.8,10244.8,49906.0,26281.4,8393.2,53320.8,18008.5,42094.0,15868.2,13091.3,0.0,199145.2,
273,0.57,13509.8,19040.4,25722.5,34706.1,21937.1,26183.8,29725.3,17342.4,37168.1,28687.5,8917.8,75398.0,27981.3,10503.4,88132.5,22384.5,28307.7,29127.3,36832.1,0.0,177818.4,
274,0.814,20959.8,20905.9,22176.0,17798.4,24218.1,24876.8,23502.9,35265.5,31386.0,33682.4,29645.5,54238.2,33997.8,31110.0,79868.1,29931.8,70056.0,19826.3,20511.2,0.0,211811.4,
275,0.644,20358.5,30597.2,32516.7,29356.1,27231.2,31314.1,27963.1,19199.0,30802.7,36917.7,30326.7,208650.9,68091.2,10769.2,55329.3,147805.8,166102.0,26014.6,20434.0,0.0,129976.2,
276,0.32,21996.2,27062.7,31328.2,40499.5,27944.1,31360.9,29752.7,30897.3,29894.1,29162.3,17859.5,72525.8,41050.0,105127.4,37871.4,16714.0,67982.0,30468.1,27900.1,0.0,180035.2,
277,0.232,11689.5,14292.6,16589.2,15834.0,14353.2,15172.6,18055.3,9035.0,14688.4,14943.0,7838.9,10121.3,10806.1,8662.1,18267.2,11750.3,10763.6,15053.3,19192.4,0.0,171780.2,
278,0.211,15755.9,18439.0,19762.0,16081.3,21739.9,23757.1,20121.0,16841.4,23288.2,12081.9,12363.1,15796.5,18087.6,23277.3,8701.1,20438.9,15956.3,18914.8,17341.0,0.0,218407.4,
279,0.226,9675.9,14908.9,20185.3,15304.7,14730.3,18595.1,18101.4,11903.1,17685.1,21320.3,15086.1,38190.3,19767.3,12476.7,34017.9,94163.3,48321.9,18624.0,19531.5,0.0,177000.1,
280,0.221,6671.0,7061.4,8593.2,7913.8,8777.2,8507.7,8796.7,7743.5,12330.2,8017.3,6724.4,12874.5,12069.9,4617.7,36328.1,12548.8,10431.8,8183.5,7798.3,0.0,142192.8,
281,0.199,5916.1,4782.2,7465.3,5170.5,5692.5,5792.7,6942.9,7042.0,7243.2,13033.8,24682.7,25904.4,19624.1,7452.5,29919.0,65912.5,26324.9,9367.9,11941.7,0.0,187456.1,
282,0.447,17637.3,26379.5,24326.6,19867.8,30351.3,30791.6,26491.8,26500.4,41605.8,23243.6,36305.3,55051.5,23484.8,24013.0,49712.4,70069.5,22267.6,25150.6,23862.3,0.0,175893.6,
283,0.209,16179.5,19724.3,20450.8,20580.3,20005.9,26267.2,23270.2,20936.3,20974.4,15648.4,22438.7,12806.7,13687.5,16770.4,98655.6,20099.5,15314.4,19605.4,16471.0,0.0,211082.6,
284,0.211,13317.9,15104.7,13281.3,14165.9,14721.4,15644.0,12515.9,9509.7,13679.7,13910.6,7129.9,14514.4,12134.0,9218.3,149800.3,10064.6,10460.2,11917.8,16544.0,0.0,199378.9,
285,0.219,18292.0,14607.1,13353.1,10058.7,20939.1,20104.8,14927.9,23201.5,25063.6,13527.3,19145.0,26779.9,16247.3,22236.4,95722.4,31802.5,15160.4,16785.2,19044.1,0.0,196060.6,
286,0.274,10911.6,10795.0,7496.8,7749.5,13789.6,13892.4,9741.3,9967.7,16494.7,13962.7,7280.5,22739.6,10205.4,7114.2,15032.9,15719.4,17707.5,9220.0,14877.3,0.0,227994.3,
287,0.199,9131.3,11202.1,11848.1,13647.3,12041.0,12908.4,11268.4,11639.4,12947.7,17061.8,9043.3,8414.8,8243.7,9235.9,24197.6,19487.7,12550.0,9715.0,20515.3,0.0,202163.1,
288,0.231,17279.3,26710.2,31746.3,30422.8,23617.1,31928.4,33478.3,17176.1,35061.1,35484.7,26431.5,137080.0,59699.1,14100.5,51133.5,164296.3,125327.6,38694.5,37924.0,0.0,168200.0,
289,0.245,14015.1,18708.9,18147.7,14573.4,21367.9,23872.7,17196.2,18955.9,27832.0,27241.6,18091.1,103231.6,35099.2,15219.6,34107.4,74533.5,87509.5,16662.2,15023.3,0.0,179778.7,
290,0.202,10117.4,13779.5,22810.5,29806.8,21166.7,28120.9,30969.6,15762.6,34800.1,21449.8,28028.3,167284.3,44230.7,11243.1,64498.2,105205.1,73434.3,30117.1,31838.4,0.0,161306.0,
291,0.286,17319.1,28221.0,45417.0,43149.0,33671.0,44539.1,46034.8,24472.0,53612.3,18827.5,21306.0,138706.7,55533.4,10248.7,66669.6,127244.5,61537.5,48935.5,38262.4,0.0,192576.6,
292,0.245,12092.9,15614.7,21281.6,23816.8,21317.5,22879.6,23486.9,22628.6,38360.7,15460.2,21080.6,145717.9,34100.1,13006.6,72701.0,87074.1,59066.1,29932.8,28995.2,0.0,153945.5,
293,0.24,14378.7,16865.0,15960.5,13773.2,16833.9,15507.3,15390.6,14539.1,12647.9,21282.9,23434.2,99994.6,23630.2,16584.7,57042.8,87351.5,78732.3,9626.0,19515.2,0.0,157175.2,
294,0.203,10431.3,16593.8,22289.6,20729.5,20718.9,24390.2,24181.0,13675.4,31065.5,19521.6,11986.5,135191.2,42962.2,11469.5,74836.7,82814.3,105206.1,24602.4,21632.0,0.0,95954.1,
295,0.256,11096.3,13873.4,19339.1,17665.3,16591.5,18775.9,20064.4,11751.2,21930.6,21139.0,16438.8,55943.1,8180.8,7712.2,18302.7,96892.9,32929.9,15312.3,15123.6,0.0,131068.4,
296,0.235,14012.1,16621.5,18907.3,17992.3,17757.2,23772.0,20955.1,15155.7,27209.9,22888.3,8504.8,90556.6,31715.3,10221.6,30280.8,64361.1,80133.6,20978.6,18241.1,0.0,141195.5,
297,0.204,18059.8,20849.5,17150.3,19482.3,23162.9,20947.1,19319.6,20781.7,39122.8,45620.2,26885.9,174149.1,75325.6,12712.1,53155.7,95149.2,141798.4,30312.6,31673.1,0.0,125931.1,
298,0.312,24377.8,32268.4,31745.8,29431.7,36161.6,39680.4,33827.5,31827.8,49422.2,32547.4,23463.5,177250.2,48923.9,17144.1,53510.6,103887.2,170434.9,34485.8,29670.0,0.0,86972.4,
299,0.214,17824.2,23118.3,26145.4,17769.4,27455.7,32399.1,29129.8,21757.6,35225.8,14788.1,9676.7,67050.5,22437.2,14098.0,28959.4,58746.1,33639.6,22999.5,16738.5,0.0,129186.4,
300,0.357,3775.2,7629.5,12290.8,12982.8,9126.3,12368.5,13180.3,8701.4,15673.1,11960.8,34001.1,35796.5,9432.4,9003.5,41786.2,121521.3,18736.0,10729.0,12694.9,0.0,83870.9,
301,0.233,7875.1,13370.7,15555.5,18842.6,14738.7,16570.9,18320.5,9545.6,20796.5,38610.0,19744.3,33347.8,24837.7,10731.2,15534.8,59392.2,51779.5,21180.4,32224.7,0.0,137056.6,
302,0.324,18282.6,18259.8,18099.1,14547.5,20751.4,23711.3,19033.6,19092.9,25495.9,21632.1,18748.8,79199.3,22335.5,15000.9,26750.0,61125.7,42066.7,17784.5,15413.2,0.0,167308.9,
303,0.285,31422.9,29344.5,26074.1,26720.7,29777.7,31951.3,30322.6,31065.6,36311.5,28836.5,29989.9,81960.8,49114.7,25851.5,51173.4,67836.5,80186.7,29569.1,23085.1,0.0,121515.2,
304,0.201,10178.7,13743.2,18760.1,14762.0,15444.3,18430.5,17939.1,10617.2,22341.5,21213.5,11282.6,52446.7,24203.7,7872.4,15801.9,47761.4,56498.2,15080.2,14919.6,0.0,141759.1,
305,0.222,13492.7,19369.4,21587.3,19246.7,19981.2,19661.6,22444.7,19069.7,36498.2,23384.9,35454.2,165546.4,42099.1,12631.4,62816.4,143054.8,44547.8,28455.2,24116.2,0.0,145711.1,
306,0.213,21037.0,20812.6,21936.2,24378.9,19895.4,20082.7,21814.2,23894.1,26519.3,37384.2,24108.5,115777.1,56957.9,18211.3,50435.4,89889.9,81422.4,28798.1,29743.0,0.0,136004.6,
307,0.197,9552.5,14496.6,15038.6,11960.2,14596.7,16436.1,15480.7,11791.4,21186.9,19533.1,24481.1,144797.5,50567.3,8913.5,49097.4,131821.6,113038.9,15505.1,17130.5,0.0,184515.2,
308,0.234,17269.2,22397.6,21876.2,19178.9,20656.8,20196.3,21182.6,16760.1,28012.7,28782.3,9082.1,95995.7,43227.4,11110.4,26786.0,35837.4,71083.1,26589.8,22831.1,0.0,142128.6,
309,0.216,15919.5,21077.9,26348.9,27848.1,24814.1,31609.6,33845.8,19862.5,37004.5,48565.8,15065.0,92214.5,70683.8,10051.5,29036.1,34026.5,115030.9,40218.2,42102.2,0.0,187628.5,
310,0.29,19706.0,20408.4,24537.4,25534.8,18911.4,22553.9,23773.7,15867.4,16442.6,31280.5,30323.3,34756.1,22819.1,15526.0,13791.4,82468.6,66154.4,22648.0,31177.4,0.0,148151.7,
311,0.344,35781.1,43781.8,36445.8,33844.2,51659.5,54233.3,46604.6,38311.7,65339.4,15162.6,13295.5,86803.8,36708.0,20009.4,36162.8,24133.5,28622.3,42294.9,25630.5,0.0,138364.0,
312,0.186,14279.3,14112.2,12403.0,12758.4,17900.8,16691.3,16255.9,28431.4,42868.6,64743.2,44703.3,340189.1,129459.4,17700.3,115914.0,201498.0,177714.3,32744.2,27167.7,0.0,106698.2,
313,0.205,16913.4,23088.6,24064.6,20178.1,27783.6,38210.6,31371.3,20321.7,41170.9,32738.9,16343.1,123138.6,63182.3,7969.3,29618.8,97907.6,72933.3,36677.4,28663.4,0.0,102396.2,
314,0.215,19859.4,28102.4,37178.3,35456.4,35917.7,40420.1,41042.0,20673.2,43274.3,51735.4,11535.7,76956.2,37256.2,11945.1,21512.0,72546.0,38581.9,45290.0,51831.5,0.0,144381.7,
315,0.281,12610.8,12097.4,13580.6,16466.2,12242.3,15689.1,15350.2,13534.4,17997.5,32562.8,18500.6,106693.8,32085.7,9673.2,40254.7,93664.3,47224.3,17719.2,42058.2,0.0,96537.7,
316,0.217,13049.8,15183.4,18986.3,19737.5,17242.5,21677.9,19967.8,22112.9,31462.2,15099.7,39929.3,73330.1,16721.3,17854.8,46855.7,104936.9,25600.8,20251.5,22531.3,0.0,137012.1,
317,0.191,11289.4,17735.4,22500.4,18430.1,19312.7,25565.3,24232.7,10349.5,30794.4,33592.2,20126.4,159288.0,45015.9,5431.2,58354.2,117379.3,96179.6,19592.2,20231.7,0.0,154874.1,
318,0.323,8397.0,10530.1,11549.3,12656.6,10497.2,12645.4,10877.6,10686.8,18699.9,11949.1,25490.2,93811.2,18909.8,10593.6,40603.2,119254.1,40742.8,14464.7,15902.2,0.0,96482.3,
319,0.927,14680.1,20092.2,20218.5,18590.4,21324.9,23517.3,23296.2,20538.3,30988.6,37370.4,25181.1,84132.5,51987.1,17059.6,20535.3,90557.2,124406.4,30658.7,20780.7,0.0,107699.0,
320,0.586,22240.1,30081.9,28848.9,24394.4,29019.7,35284.6,32335.4,21929.7,36990.5,38226.5,17267.9,50422.9,29582.6,13795.6,31544.3,78080.9,73920.1,33013.6,29863.3,0.0,112253.8,
321,0.271,12981.3,17787.3,21039.4,16545.7,22523.9,23017.6,23148.1,15063.2,30571.9,28082.5,23652.1,143274.3,43861.1,11287.3,50732.0,97543.2,111336.1,17707.0,13952.9,0.0,74787.9,
322,0.232,10711.1,11176.2,14079.4,12559.6,14869.8,18729.0,16688.9,16212.9,27608.5,28203.4,16332.8,120815.3,39509.8,9130.3,50763.1,86596.4,80846.4,19811.5,24066.2,0.0,92496.4,
323,0.25,16229.6,20414.4,22665.5,24123.4,21229.0,26356.1,28010.1,17970.3,39453.6,25376.7,25367.9,204512.8,55509.2,8288.2,60746.7,169670.7,132555.6,27053.8,32721.6,0.0,94141.1,
324,0.204,10878.7,12165.9,21288.1,22154.1,11748.2,18378.1,20744.5,8708.5,20756.3,18551.4,17435.3,114398.7,22065.2,9325.3,36230.0,89166.6,42233.2,19435.1,35640.8,0.0,75001.0,
325,0.254,5382.4,9129.7,18887.9,23976.3,12977.7,17713.3,22734.7,10940.3,25468.9,36579.0,9704.7,37193.7,30694.7,7921.3,21368.9,49713.1,45552.6,23938.9,27608.7,0.0,91586.0,
326,0.193,12014.0,16335.5,20080.2,20146.1,15123.8,18495.6,22212.4,12105.6,17618.6,25238.8,6693.4,22157.6,28135.9,7831.4,16517.0,33822.0,43629.6,24530.9,22604.6,0.0,83591.4,
327,0.183,10708.7,12461.9,17409.9,18326.2,17130.9,18549.0,19711.6,23033.1,32261.1,18507.6,14348.6,60655.4,31429.1,19587.9,22814.0,25360.3,52828.9,21340.3,18170.0,0.0,115391.1,
328,0.328,20469.9,26134.5,28039.4,31510.8,28903.5,32125.8,35477.6,27871.1,36980.5,37538.8,20512.7,69385.6,47283.8,20677.9,24219.4,40593.7,67527.9,35994.0,30835.8,0.0,111965.9,
329,0.363,20504.3,25900.5,26218.7,24133.4,24327.1,26540.8,25787.8,20158.8,21586.3,32244.2,43635.9,148613.2,36142.9,21929.8,62359.3,191292.8,113732.9,20965.3,20338.8,0.0,99248.1,
330,0.206,13341.7,17874.7,24951.3,20539.4,22990.1,28930.7,30508.8,15484.8,34056.7,33136.0,19885.4,150868.7,43301.4,11087.6,57050.9,131161.3,143192.9,24516.9,20187.8,0.0,51752.3,
331,0.239,17114.5,23786.2,21430.3,17789.6,22509.0,25924.5,22649.3,16623.2,21107.9,26329.3,11936.8,123435.2,40049.0,9883.5,37290.3,96162.3,98879.4,18139.5,25432.9,0.0,74601.5,
332,0.42,19944.0,27032.5,28815.7,19947.6,26765.1,26201.2,23939.2,21714.7,29835.5,18887.5,28926.8,187524.5,38098.3,24806.1,46908.6,125068.6,77190.2,22365.4,16267.1,0.0,94134.2,
333,0.188,13643.4,19516.1,13587.6,9413.5,19457.2,20729.7,17148.5,10794.5,23520.7,32610.6,18209.1,171409.9,54141.5,8851.2,29709.5,78578.8,123194.3,15725.7,18679.9,0.0,87449.0,
334,0.229,10895.2,15557.6,12006.1,8754.7,16486.9,14550.5,11181.6,13151.6,15392.4,23604.5,19692.9,105238.5,38403.5,8123.8,31181.0,109145.0,85970.4,15196.8,17329.1,0.0,46090.6,
335,0.188,12275.2,12256.1,13434.2,13312.9,12537.2,15370.6,13843.9,17651.2,26955.4,29163.0,34067.3,152235.5,39167.6,15708.8,63208.6,111712.4,70007.0,18689.2,19487.5,0.0,77965.5,
336,0.414,25846.2,29085.1,31307.3,30776.2,29301.6,37008.2,33561.0,28796.3,35632.8,34349.7,27011.3,78201.6,24798.8,27955.3,47630.6,81250.2,85714.3,24819.6,30331.8,0.0,49060.9,
337,0.381,12896.6,14031.4,17619.3,19496.3,16226.8,17691.1,20823.3,13871.8,19207.2,21942.7,17544.1,27425.7,27116.3,11629.6,21076.1,51503.8,35679.0,22338.3,21028.7,0.0,58670.6,
338,0.298,4379.1,5297.0,9658.4,10700.0,6749.1,10685.9,10741.0,6801.7,15520.0,13867.3,10407.9,65583.8,22716.4,3540.1,19103.4,58680.0,54845.0,9892.8,7877.4,0.0,34820.0,About it getting more tranquil as the visuals get faster.
339,0.218,16261.2,19148.6,13935.6,11993.6,22150.7,23477.9,17591.8,21739.1,34332.0,55575.8,19961.9,122360.2,70161.0,12864.1,54638.1,92676.7,168057.1,21858.6,23735.9,0.0,49127.6,
340,0.367,10837.8,13047.3,12848.9,7665.1,12233.0,14981.4,13784.1,14191.8,18368.9,28644.9,39445.2,174696.3,45647.8,10578.4,62981.3,182818.0,158415.7,11181.4,8052.4,0.0,41425.8,
341,0.738,17506.1,24182.8,31301.5,29346.4,22031.6,27341.8,26461.9,15837.5,28615.2,19362.1,14768.7,40721.6,20421.8,13548.7,16271.3,32389.7,26757.8,22997.1,23441.5,0.0,30635.5,
342,0.236,6922.0,7361.0,10607.9,11931.7,11244.8,12318.5,13185.5,67401.4,18606.8,17274.3,12624.5,52571.1,22843.3,6752.5,25372.8,44061.4,56656.6,15264.8,11839.5,0.0,30190.9,
343,0.241,9249.1,11747.3,13346.4,12310.1,10186.4,13875.9,13750.0,14210.6,15629.4,18704.3,15693.6,82244.2,13768.0,20359.4,25251.5,65513.1,51785.4,11908.2,9509.2,0.0,33703.7,
344,0.205,10097.6,11066.2,10456.0,11446.0,12318.1,10893.4,10934.3,12561.9,17474.5,24313.2,12588.3,69103.6,31156.7,10746.7,33340.3,50751.3,58097.6,13098.3,18971.2,0.0,37115.1,
345,0.267,14733.6,16146.9,14524.0,9567.5,19588.6,24166.1,16115.5,20589.0,22800.4,16160.2,13365.1,56687.4,21455.2,99677.2,55704.4,36705.3,30869.4,12403.0,9242.5,0.0,53292.3,
346,0.485,17822.9,17449.9,17609.6,24310.6,19090.1,19636.4,21128.5,20164.4,28653.9,45888.0,31155.9,57311.9,44486.4,25639.1,51016.9,43759.6,55258.0,29207.0,41836.9,0.0,45025.6,
347,0.22,21756.2,30772.3,30159.7,28974.5,30586.9,36748.5,32589.8,25749.6,47399.4,22489.8,15491.1,137929.5,38095.1,15287.9,58342.7,94864.6,85397.7,32361.4,28388.4,0.0,61706.7,
348,0.775,32405.9,40737.7,39111.7,32353.7,39779.5,42389.6,39871.3,36279.8,52274.8,53632.6,40186.0,199343.0,73781.2,28293.7,74716.0,136702.8,120030.2,42491.9,45607.9,0.0,31192.0,
349,0.402,13644.5,17445.3,20759.2,19849.0,19879.4,21406.3,23917.6,30467.0,36314.5,74617.2,28995.7,153610.5,98744.9,20449.1,61988.1,77137.7,145726.0,38075.6,39043.3,0.0,42378.0,
350,0.209,10764.3,14671.3,20137.9,20168.5,15266.2,18707.2,20601.0,19705.7,29116.0,21722.7,24230.8,124380.4,28526.8,11054.4,58202.8,126292.7,43575.5,19710.7,22355.9,0.0,36387.5,
351,0.269,43644.4,53888.9,57676.0,54613.9,57828.8,69664.9,63019.0,45661.6,77057.1,43788.4,37295.5,255713.2,96683.8,26109.1,77858.3,145988.8,143680.5,61027.8,55447.1,0.0,53837.2,
352,0.643,17113.4,28350.4,35103.4,28948.5,36849.1,42322.9,40795.4,21447.7,53993.1,32324.7,9434.3,246379.3,69938.6,7233.4,41339.7,105701.8,163210.1,32619.3,20640.7,0.0,30347.9,
353,4.047,10003.8,26435.2,18287.2,11296.3,13832.0,15369.6,13417.4,13503.7,21613.7,17178.2,29270.1,106411.9,23125.1,11074.5,38004.9,97338.0,53773.6,9049.1,12698.8,0.0,44083.5,Body-wide and equanimous and neutral.
354,0.533,17509.2,21958.2,15850.8,12435.3,18882.4,19293.6,17738.2,30215.4,17815.8,30126.8,18310.3,33623.6,27837.0,6973.2,13298.7,85225.7,94474.4,10321.2,14117.3,0.0,35343.8,
355,0.506,40195.7,37327.2,35597.9,38633.8,41803.6,40341.5,41087.2,41467.0,52056.4,49683.6,54573.6,151124.3,81011.1,47127.0,66134.4,96512.1,111482.1,49327.8,46301.3,0.0,56207.1,
356,0.664,10255.6,15739.6,18626.5,16325.4,15238.5,20024.8,20314.1,13963.0,16893.9,37486.6,17917.7,113818.5,39920.0,8709.3,34571.7,135544.1,122954.1,16627.5,20533.2,0.0,51722.0,
357,0.522,47110.0,58475.9,65282.7,53942.2,53612.5,60808.1,56891.0,28331.5,37992.8,59618.3,27571.8,105979.1,63959.2,75737.9,27632.5,102494.8,230584.3,40371.7,42204.9,0.0,76859.6,
358,0.203,12033.0,16500.5,16379.9,14758.5,20847.7,20308.1,17912.8,13084.2,24652.4,14274.2,9870.0,48815.5,25662.8,7212.8,29885.4,51231.9,39363.3,16160.2,13588.4,0.0,17794.2,
359,0.233,11238.3,18237.6,21182.7,20991.6,14554.7,23709.8,22279.5,11422.8,15806.4,20553.7,10332.8,44668.8,19913.3,22829.4,39444.4,66688.7,71576.5,17349.5,17377.9,0.0,40392.7,
360,0.231,17423.2,20878.6,20082.4,13607.5,22684.2,24589.8,20300.2,16836.7,25143.7,31311.6,16960.3,101845.3,36572.3,10306.8,28029.0,127905.0,126466.3,17321.9,18116.6,0.0,19593.0,
361,0.491,22031.8,22973.9,25977.3,30402.4,24608.3,24930.5,27891.4,28148.0,28929.7,35141.6,33768.2,34337.1,39296.7,25830.0,48923.6,48089.7,35410.9,34383.7,45981.0,0.0,42826.5,
362,0.192,16443.9,18047.7,22485.1,23728.0,21059.5,24131.3,25119.5,20441.9,31844.6,50062.9,22339.8,91014.8,58947.5,12475.9,92004.1,100229.3,122438.1,30749.9,38004.7,0.0,45676.6,
363,0.241,18607.2,23306.0,31215.8,30996.7,30006.7,31617.9,32533.7,28124.7,49763.0,45602.7,14520.2,145483.2,74249.9,14324.0,41117.4,47806.0,83937.0,41768.6,41177.8,0.0,26366.5,
364,0.198,10324.9,12706.3,12204.7,7719.8,12335.9,13667.7,9363.8,9614.3,12461.0,27770.9,22100.9,105394.2,35384.7,7475.5,28834.8,110564.3,112177.0,8438.7,14452.9,0.0,31520.2,
365,0.191,11577.5,15799.7,23503.1,20713.6,17548.5,22106.3,23690.4,11948.3,26063.7,37675.1,19274.7,86485.2,43929.4,6555.3,35530.7,115871.0,134539.5,21928.5,16245.4,0.0,35065.6,
366,0.301,17525.8,17594.2,18640.5,17872.0,21983.9,22806.9,21890.5,25428.7,31561.5,34452.3,37395.7,75012.0,48545.4,28919.7,50597.4,40482.5,70638.7,29485.1,25907.5,0.0,25728.8,
367,0.166,6928.8,7078.1,11740.6,15337.9,9436.6,12623.4,14105.2,10467.2,17105.1,23993.9,13645.5,36256.7,24740.9,8595.5,30397.9,37740.7,39894.8,15032.6,18118.3,0.0,32374.2,
368,0.19,9531.8,10584.7,14994.9,16314.1,10526.9,10637.6,13465.4,12078.5,15274.6,21938.7,13433.9,21880.1,23751.5,9761.7,23231.8,17006.1,26709.0,20225.0,19859.5,0.0,41913.2,
369,0.238,20788.3,22163.3,26168.4,25837.6,22645.0,31307.4,32346.5,22466.8,39422.1,15914.0,18752.3,61463.9,31039.2,16229.0,24598.1,45377.2,22979.3,34675.4,22949.9,0.0,21458.6,
370,0.187,13478.4,13204.5,16240.4,19577.0,14300.1,16243.6,14435.2,10251.0,12337.1,15149.4,13295.4,37754.4,13845.2,15009.2,20746.4,58471.6,22902.4,12576.5,19025.0,0.0,16732.1,
371,0.188,7292.8,8967.8,13945.5,15371.5,8486.8,12977.5,16968.3,7733.8,17475.0,20523.9,12117.6,48976.4,29145.0,20148.4,18855.6,30671.8,48835.5,22041.2,17260.1,0.0,16696.8,
372,0.21,12008.7,15543.2,18397.4,11014.5,17468.0,19532.4,18343.9,12544.6,22161.1,16157.4,7651.4,69760.8,23899.2,9864.5,14992.0,24630.4,34557.5,13026.9,10688.4,0.0,20975.0,
373,0.234,7382.3,8620.0,10788.9,12952.1,8979.0,11147.0,13549.1,9025.4,21079.6,26073.5,17745.0,55103.4,34013.9,10557.0,23164.4,36265.5,34495.0,22284.4,20865.9,0.0,32401.0,
374,0.211,12842.0,17254.1,20345.3,19231.0,18500.9,18986.3,19067.0,19633.3,24626.8,28405.1,11414.5,27323.7,24374.2,14531.0,73465.4,15971.3,26910.0,21255.0,23919.5,0.0,36404.1,
375,0.335,13215.5,15431.9,18807.6,17464.8,14022.0,14797.9,16121.7,13123.8,15470.4,23759.0,25018.3,29138.7,21001.3,14390.6,35282.0,40987.8,29227.9,17494.3,21068.5,0.0,28166.2,
376,0.187,12207.4,15581.9,22651.4,24475.0,18143.4,23211.4,25421.4,13245.8,23573.9,23565.6,12112.7,21980.4,20800.8,8885.3,21190.3,16870.0,18456.9,23584.2,21657.5,0.0,29076.1,
377,0.168,7654.9,12682.9,22173.4,26498.0,10651.8,18913.6,21807.5,7486.0,23236.1,28695.7,10062.2,49713.4,29246.7,5790.2,16520.5,34232.6,47222.2,23332.1,27664.8,0.0,17138.5,
378,0.235,17539.4,15009.4,18001.7,15121.1,23906.6,21351.5,21610.4,26232.5,47322.5,14796.5,13627.6,138261.3,50670.5,18241.8,32987.9,31518.4,54116.4,30951.6,14359.8,0.0,26404.1,
379,0.19,8037.8,9302.0,10866.0,13230.7,7400.9,10752.4,11412.5,6442.4,9652.8,16355.5,11898.7,20487.1,21681.6,7910.4,16778.5,20316.5,25288.6,14310.3,15771.1,0.0,28347.2,
380,0.19,7691.4,11830.1,12815.6,8978.6,14883.3,17030.3,14720.4,12346.3,21198.1,13686.4,16808.2,39094.0,21923.8,8344.2,40634.1,53300.5,31551.2,10076.1,9720.3,0.0,12911.1,
381,0.205,11764.5,13792.4,17727.4,17688.5,18450.2,20659.5,18580.8,21490.6,21166.3,17926.0,24093.0,51072.0,17549.8,10515.2,51798.2,103473.2,32661.1,16791.9,14571.3,0.0,21558.5,
382,0.188,8032.2,12037.3,11202.1,12244.1,9882.3,11232.1,11405.2,7169.5,9142.9,13828.9,11255.0,32589.2,15510.4,7738.3,24553.3,32529.1,19682.8,12490.6,21101.4,0.0,18272.8,
383,0.215,8712.6,14039.6,18939.8,21092.6,16173.5,19211.5,17840.1,12553.0,21769.7,19340.7,6984.9,18707.3,21267.0,8893.5,11443.7,12604.9,17965.2,21815.6,23919.5,0.0,21916.1,
384,0.225,17993.4,19489.0,32082.4,35380.4,24764.7,30227.6,35504.2,30383.3,43290.8,45841.3,20056.9,62304.0,45337.9,22606.0,48846.6,38103.3,58337.7,45438.0,50085.5,0.0,28391.3,
385,0.274,30163.6,29809.6,31095.9,38547.7,30861.5,35074.4,35409.0,31872.9,44007.1,30403.7,14565.5,38569.8,32135.0,27006.2,35484.2,18046.1,26907.9,39859.4,40733.8,0.0,13928.8,
386,0.158,7818.9,11572.4,14107.3,12379.3,10251.8,12878.1,13745.4,5994.0,9952.3,14202.4,9313.9,23972.5,11341.4,3953.6,10887.1,31883.3,17229.9,13443.4,14234.6,0.0,21806.4,
387,0.217,17470.2,25054.9,27129.2,21479.3,22880.4,25757.4,26039.2,11762.5,16977.5,13310.8,12528.3,88813.6,15414.7,7747.9,54844.4,138449.1,79183.3,18178.4,20748.0,0.0,19163.8,
388,0.371,33780.2,35392.4,34244.6,33419.8,33815.3,37942.8,34797.0,34139.7,47619.3,25661.5,20247.5,91923.0,47338.8,27320.4,32441.1,83272.5,80842.7,33655.2,37885.4,0.0,24903.0,
389,0.204,12986.9,21233.5,27353.4,28442.2,22475.1,24830.2,29386.0,15870.3,23869.5,20755.2,10375.7,28806.9,14875.1,9701.2,20785.7,37118.8,43010.0,19757.6,28184.2,0.0,17861.7,
390,0.275,12983.8,14034.1,19477.5,24098.2,15649.1,18075.6,21749.1,9922.9,16693.8,32065.7,15440.7,29250.1,21401.9,11290.9,12937.3,25691.1,41001.1,23662.7,28662.0,0.0,41046.2,
391,0.288,14259.6,14726.0,13431.4,10895.6,21284.6,20049.0,18371.7,26029.5,34881.8,43580.1,23290.7,89690.0,53197.2,19563.6,71404.6,60834.6,109579.9,23251.7,24651.3,0.0,48151.1,
392,0.209,27683.7,34249.1,36155.7,32355.7,38181.7,48754.4,40408.6,35490.4,66109.5,68115.4,13577.7,207756.7,134054.1,18073.7,109345.0,63061.1,139338.5,62916.5,55696.5,0.0,25870.4,
393,0.377,22527.1,27202.4,25260.2,23213.9,27933.7,30313.8,27198.4,20103.6,28677.4,65716.5,11294.9,92429.4,68074.6,13718.7,31162.9,60291.4,161374.6,22680.3,19541.4,0.0,39374.9,
394,0.322,23596.8,28429.9,33452.7,31756.1,29773.7,39392.0,36678.8,28033.7,47204.4,67605.9,17802.3,100334.3,82885.2,18515.2,43382.9,56766.4,129159.9,48853.8,34984.4,0.0,25049.6,
395,0.211,11088.2,14122.0,14644.4,19032.6,16409.9,18181.5,17675.2,13977.0,17620.5,52083.6,13205.6,90543.7,49202.0,12985.7,19506.9,44226.4,152699.6,24985.4,33336.8,0.0,11460.9,
396,383.134,8850451.4,20103732.9,1978340.2,42424996.7,155101.6,25815.8,27303.3,26285.1,33883.1,12355.9,13527.7,78010.0,29642.6,36082.1,16693.0,25571.2,36706.9,20087.6,25588.2,0.0,13176.5,
397,488.742,474110.6,4685363.2,3924397.0,2961177.6,556856.9,22583.5,161440.6,234916.4,82567.0,70912.7,93418.4,41015.1,18120.4,346802.1,86785.7,76692.6,50035.7,18951.3,98260.6,0.0,18498.3,FRUITION-CALC
398,75.242,8431.8,39018.3,19212.8,27006.9,15508.2,20316.6,21206.7,15215.0,91099.5,16876.1,7041.2,30293.2,19929.5,15990.8,20782.8,18397.7,29053.8,19997.7,22570.7,0.0,21594.7,
399,1.576,14963.2,20042.8,22722.2,20208.5,21581.9,20748.4,20513.6,16726.7,48857.0,27773.5,22520.5,52385.2,28466.1,10246.3,28172.4,67616.0,41725.8,23195.6,16563.9,0.0,20332.2,
400,11.995,8030.2,11912.5,9382.1,7174.8,11729.7,12145.2,11342.2,10915.9,17230.2,10888.8,22038.2,52308.7,11423.7,9777.2,56413.8,106140.3,50719.0,9761.7,8802.0,0.0,25414.8,
401,35.93,30325.6,40690.3,46234.7,35318.5,42196.7,43885.6,42601.5,38630.4,52460.7,63451.1,31566.3,107263.3,63196.4,30632.6,49952.8,81745.2,146904.8,47248.3,55657.8,0.0,29921.5,
402,54.238,20789.7,24511.3,18513.6,18317.1,29921.9,25930.8,22922.6,28112.5,33925.4,27043.1,20085.1,81719.3,37969.7,15598.2,53137.0,88085.1,67417.3,31547.4,26785.9,0.0,23100.0,
403,51.182,14800.7,15399.9,13636.9,10319.4,14115.0,11598.9,11975.4,19294.8,13327.6,9629.1,13938.0,58034.1,17873.2,11416.0,13938.9,52130.9,32648.0,11837.0,11639.6,0.0,32421.2,
404,38.428,17373.8,22582.7,21874.7,19519.0,23831.9,25955.7,26733.6,26522.8,26808.4,24359.0,17656.0,87684.2,20241.2,42289.7,47676.0,126234.1,93033.5,18498.4,15691.9,0.0,30332.5,
405,15.513,12310.4,14759.8,24903.1,207120.7,17883.8,17430.5,25290.4,33450.4,33698.9,23171.0,27793.7,132007.0,48854.8,34314.0,55459.2,91858.9,94275.4,33030.9,19910.5,0.0,25005.4,
406,10.913,25541.8,52731.3,40588.6,23604.4,39275.7,35148.4,30510.8,28998.1,38007.2,41744.4,19323.9,86335.0,58168.7,16924.9,39895.9,69886.7,136149.9,29383.0,24093.8,0.0,18743.5,
407,7.454,13988.9,19939.1,22718.9,20769.5,19654.6,25911.1,23131.8,13925.2,28786.7,31160.3,26980.7,67633.2,35567.7,12561.1,35557.8,114604.0,119859.2,24566.7,20794.2,0.0,38320.1,
408,2.328,9329.1,11369.4,18639.3,17877.7,14080.2,19930.3,19573.2,16940.7,24145.7,43611.1,30332.1,118628.9,51539.5,19049.6,56410.4,151599.1,140594.4,18430.8,20354.4,0.0,25145.9,
409,1.381,12065.5,13068.7,10872.9,10181.6,17304.3,10360.0,10229.5,11145.0,13533.2,19698.0,9917.2,98918.7,34961.0,9585.9,18705.3,51231.2,73067.9,13114.9,10761.3,0.0,26364.5,
410,0.374,9654.3,10612.7,10279.4,8034.5,17759.8,16718.2,12638.6,22705.4,28330.0,9196.2,22362.2,113979.0,25337.2,12953.4,72878.1,90122.3,37207.0,14566.3,13985.8,0.0,18671.7,
411,0.586,11252.2,15191.6,14994.3,16464.5,16086.9,17460.6,16277.9,18044.5,20214.3,12800.9,15766.2,38385.9,16466.7,13866.3,35676.2,15791.8,15821.4,16568.2,22041.3,0.0,12653.7,
412,0.705,13082.1,19913.2,23824.7,22729.7,21718.4,29185.9,28005.8,14228.1,28818.3,19140.8,9772.9,70735.4,25576.7,8798.3,23004.7,56460.7,67895.7,22857.2,16959.6,0.0,23060.8,
413,0.643,16700.7,19242.2,15786.6,14011.3,20913.4,20130.7,18245.8,21213.6,23741.9,28260.2,21636.9,148421.8,52890.4,12559.8,46505.9,139486.0,157865.2,15157.9,11522.7,0.0,21541.3,
414,0.29,18939.5,21897.1,17371.2,12691.8,21380.9,25020.3,22457.8,14781.6,23555.6,35796.7,22427.0,132382.8,47260.6,10552.2,74756.1,109357.2,142355.8,18768.7,16158.7,0.0,41163.5,
415,0.297,12890.7,16266.0,17025.9,16889.4,16948.6,21880.3,21946.1,16407.6,26128.8,23286.3,13483.6,52414.1,37054.2,16442.3,18168.4,49418.2,109538.9,21548.4,16149.4,0.0,17647.8,
416,0.405,24963.5,30217.2,36295.8,35100.2,39788.0,43173.2,43738.0,41164.7,63750.8,79348.8,67877.2,212949.5,116365.8,41070.7,102296.3,203486.9,250340.4,56404.6,47985.5,0.0,41693.7,
417,0.209,31001.6,26396.6,30132.1,28909.1,26889.4,30426.6,31883.0,26888.9,35853.9,48186.4,31904.4,135994.1,64156.8,26607.0,32142.9,131268.9,170668.6,33893.6,28352.4,0.0,77458.3,
418,0.193,9574.2,16298.6,14045.0,32130.7,12023.6,15792.4,13918.4,8636.9,19115.3,23863.2,17861.5,139819.0,34323.1,5204.1,71195.2,130895.3,99554.0,13530.0,10876.3,0.0,19348.4,
419,0.306,26335.3,31978.7,31093.1,26369.8,32129.6,35147.6,36628.1,30691.7,53456.4,20770.4,24723.9,220581.9,74041.4,24438.2,117675.0,98522.5,132435.3,40344.1,26896.8,0.0,38492.1,
420,2.006,7117.5,11826.9,26627.3,18078.5,11395.7,13805.6,17924.5,12452.2,21725.4,37369.9,15729.4,70692.5,40545.4,8134.6,76460.9,38026.9,63653.5,23241.5,18951.9,0.0,12828.0,That was a no-self door fruition of purple radiance streaming into my eyes.
421,0.276,9494.1,9925.0,11307.3,13678.1,9057.9,11071.8,10965.1,7944.3,11580.3,11491.7,10004.8,21800.1,12763.0,7868.1,32583.2,25950.0,22529.6,11644.1,14836.4,0.0,22542.8,
422,1.843,31590.9,54497.7,62845.2,40652.1,47060.8,51528.3,51138.8,46169.1,42156.3,16585.5,10125.5,94542.8,27476.9,16567.3,22051.9,82876.0,74471.6,31567.4,22919.7,0.0,27542.4,
423,0.667,28426.9,43738.2,36936.4,32771.2,44100.5,46102.7,43275.1,58131.5,55431.2,41856.1,20096.7,219451.5,82962.0,18587.9,48736.6,92854.3,123885.5,46944.2,33219.7,0.0,34308.5,
424,0.251,12928.2,17831.3,19850.7,28426.7,17576.7,16664.0,19097.3,20409.4,31126.5,23736.6,10358.9,169501.5,46459.8,11229.0,54384.2,70556.4,65999.4,27092.9,17082.8,0.0,14393.6,
425,0.21,7401.8,9055.5,11423.5,14735.6,11909.8,13740.6,14878.7,16770.8,27071.8,15894.0,17375.5,101423.9,30074.4,13419.3,35582.4,66613.0,55280.3,21865.1,23902.6,0.0,22522.7,
426,0.282,20525.9,27902.7,36236.1,28685.3,28652.2,37946.8,35307.8,20804.9,38317.2,31240.6,16420.5,196906.1,56408.9,15913.0,30783.7,76009.5,159362.5,31433.6,23727.3,0.0,36239.8,
427,0.222,12937.5,14833.3,17091.2,16622.2,18301.7,18043.6,20233.6,16855.9,29783.6,31086.3,19815.5,116589.2,44563.2,13050.5,30465.1,56107.2,41258.2,26161.1,32728.5,0.0,18987.1,
428,0.225,11189.1,13023.2,19887.3,21907.8,20238.4,21441.2,23466.7,20485.0,35022.7,43000.5,15762.0,106593.9,46049.2,10587.8,33571.6,76290.3,92372.2,27719.4,24282.3,0.0,22425.3,
429,0.208,10706.2,14739.6,18768.6,20951.3,17020.4,20890.5,21729.9,15109.8,29977.3,46214.6,30837.9,147526.5,55617.7,12276.5,35720.2,106713.7,84151.2,29802.7,33283.0,0.0,25594.3,
430,0.195,8650.2,9909.3,22025.2,30403.1,14162.3,23297.0,26861.0,13833.2,30151.4,36053.6,13422.2,77148.8,42584.0,12496.6,37162.5,41542.6,64982.4,32066.7,36019.8,0.0,16907.0,
431,0.291,5772.6,8405.4,9861.6,10109.6,10810.7,11700.6,12281.9,9967.3,19351.9,37793.8,20586.7,120878.0,45642.1,6278.7,50985.7,120926.4,107673.8,16567.7,18156.8,0.0,13649.7,
432,0.27,25414.0,25323.6,22845.9,18142.8,25164.8,28628.5,23075.1,36080.8,45949.8,32871.7,66640.0,185890.4,60192.8,35163.6,100560.9,167980.1,130626.4,28785.2,21298.4,0.0,26566.6,
433,0.383,21915.0,23732.2,25247.1,23143.0,29243.2,28103.3,23812.5,29159.7,34949.2,34871.7,26642.1,118375.4,55828.9,23283.5,42982.6,79626.9,112277.6,22999.6,17526.7,0.0,20638.5,Really nice afterglow. I'm going to drop back into it a bit.
434,0.89,12430.8,21100.6,25268.4,22593.7,15996.6,21996.2,25119.2,8937.0,27023.1,42377.3,6408.1,93856.2,59097.8,5307.8,16547.3,88943.4,155767.8,31221.3,26520.7,0.0,13653.9,
435,0.622,24422.2,30953.5,42804.6,34562.9,30712.8,38666.9,39696.9,21708.1,40513.8,19280.0,14547.3,95624.6,37183.0,12524.2,29263.9,43770.2,63904.4,33748.8,22963.4,0.0,27341.0,
436,0.515,26193.8,33920.2,35397.6,38586.3,33865.6,36658.6,40939.5,77381.7,44159.4,24371.7,16380.5,92658.3,48752.4,20583.5,28316.2,35499.8,84395.1,40907.6,30336.9,0.0,21576.4,
437,1.091,18345.1,22432.7,25362.4,119992.9,22042.6,24668.2,28317.1,34024.7,27255.6,41450.1,19472.7,44123.5,41393.2,56495.7,31768.7,31656.3,133183.5,27010.3,17603.1,0.0,41179.8,
438,0.259,7215.0,7764.6,9954.9,9428.2,7528.3,9447.2,10648.1,6097.5,9056.2,29487.6,14909.1,113786.5,38971.9,6179.9,39345.5,83190.5,159002.5,10568.2,11124.6,0.0,20673.1,
439,13.296,9205.9,15150.1,15150.7,14938.9,11977.2,16727.3,16256.5,14801.3,34984.2,37291.9,40197.2,185719.2,57035.3,21025.6,48411.9,129740.8,113716.8,28382.9,22571.4,0.0,30518.1,
440,0.424,16659.9,22994.7,29223.0,26770.0,27102.4,30949.9,35954.9,23483.5,45301.1,65364.1,23986.2,162560.5,100089.8,16490.7,34763.9,95093.5,204661.9,46825.1,35843.4,0.0,36633.1,
441,0.75,21683.8,31593.0,32380.2,23231.3,34498.9,41212.6,33697.4,29998.7,40928.4,70899.5,30508.2,122228.1,79371.5,16622.0,57367.9,104299.7,153111.1,34400.6,37481.7,0.0,22509.4,
442,0.605,18639.9,27364.3,29536.1,27860.9,33020.1,36608.0,36960.4,22227.0,44818.8,18385.0,14435.0,51717.1,30515.1,13044.9,31084.5,87357.8,69757.4,37991.0,24622.8,0.0,29330.2,
443,0.265,7256.4,11337.6,18591.5,18655.9,14601.0,22006.5,24906.6,13688.9,30781.2,13810.9,42493.2,134147.7,35787.1,9695.0,74839.9,164885.9,56667.3,25248.9,13376.8,0.0,14222.7,
444,0.232,10498.0,13229.7,10362.2,10532.7,16303.2,15569.5,14935.7,10761.7,24479.8,53386.9,24136.3,273208.0,88229.5,11206.1,57350.7,197184.4,269810.7,17387.0,10852.0,0.0,16221.6,
445,0.269,13082.2,15755.2,21709.4,23671.5,20508.0,26345.2,26328.1,14690.7,28625.2,33778.0,10604.0,165673.9,55593.2,8014.4,56115.4,116326.2,142449.3,24647.6,20009.4,0.0,13664.2,
446,0.332,30262.4,41650.8,40917.2,29471.8,38231.2,48183.5,40398.3,19605.7,39086.2,34463.1,11806.0,119186.6,22915.8,19718.7,34165.8,52648.6,63426.2,20457.7,24987.1,0.0,42656.5,
447,0.481,13843.1,16618.8,21271.4,20343.3,17051.2,20329.5,21403.1,16858.0,26044.8,31421.6,22843.5,97620.7,34613.3,13283.6,127695.3,76228.9,38834.9,23456.9,31261.2,0.0,26199.0,
448,0.324,17252.6,17764.8,15625.4,13144.9,18429.9,18148.2,16676.4,17712.6,19741.5,35808.4,22469.2,56699.9,40587.1,13181.5,31015.4,35087.0,61480.0,15519.2,20256.5,0.0,31997.8,
449,0.773,21858.6,26994.0,42771.0,41397.8,32028.2,41768.9,43276.1,16812.8,32762.5,37965.9,19348.5,153474.7,62582.1,14121.7,56296.8,124347.0,141818.8,37468.6,38545.6,0.0,23719.0,
450,0.215,20016.6,26332.9,21544.6,18017.8,26987.7,27305.2,22000.9,23892.4,32167.4,18162.4,24054.3,173987.4,48027.8,12855.3,93723.0,99357.3,157013.8,13201.7,9949.4,0.0,20809.4,
451,0.198,11341.8,13876.8,10077.7,9719.7,16636.2,14329.5,10279.8,10968.6,17789.4,24877.9,14743.6,62228.3,36961.2,8738.2,49927.3,35521.8,29838.0,11733.3,14056.5,0.0,10982.1,
452,0.503,13460.2,19087.2,22441.4,18648.7,21832.7,25739.7,24431.9,9632.8,19231.2,90287.2,18221.2,135776.4,90370.7,10302.4,60312.1,67176.7,149187.8,31714.2,53437.1,0.0,26378.7,
453,0.479,16885.6,25213.3,25960.8,22792.6,21595.3,23251.4,24638.4,15681.5,29579.9,24336.2,13240.0,88543.1,54815.8,9128.5,30393.1,24418.7,39989.2,26701.4,26912.5,0.0,15978.6,
454,0.355,20944.1,23324.1,23855.7,17230.5,23747.8,25905.3,27156.9,18113.4,32942.6,32288.3,13191.8,79452.2,45579.0,11541.4,32079.1,39405.2,46956.8,30227.3,22868.7,0.0,26502.3,
455,0.21,14736.7,21328.5,21705.1,15085.0,21873.6,28320.2,24649.6,22191.6,37744.6,39236.8,13327.2,94817.6,62249.8,11862.3,36146.9,72833.3,81605.9,24144.2,25089.6,0.0,19897.1,
456,0.214,12162.4,16492.7,20799.1,15790.9,23305.9,27789.5,24307.5,18231.3,35196.6,59947.0,13222.9,179829.4,61546.4,8270.7,40808.2,65031.2,180320.7,16252.0,19941.5,0.0,14892.1,
457,0.274,10434.0,13881.7,23079.6,23387.7,17602.4,25795.2,25148.4,13705.5,39960.4,32174.8,19157.7,165172.8,63016.4,5009.3,67250.3,88711.7,122662.9,34389.1,29527.3,0.0,14460.2,
458,0.267,22414.7,25975.6,25967.0,16380.5,28815.8,28112.3,25905.0,26351.9,30892.0,20196.4,17758.1,142224.0,41445.7,17158.9,73090.4,97493.0,41873.4,21727.9,25351.2,0.0,20770.8,
459,0.28,7064.9,8612.2,8398.8,6993.1,9276.4,8008.4,8962.9,12307.6,18048.9,21163.0,13179.8,40401.2,25024.6,7442.2,40772.6,33060.3,57723.9,10056.4,13328.0,0.0,15710.6,
460,0.246,15400.6,18855.4,19645.6,15830.3,22843.5,21847.5,22012.0,13280.2,23428.1,51603.7,11384.3,141395.1,88001.6,8355.9,23886.4,36362.2,161150.0,23929.1,21858.1,0.0,29524.8,
461,0.286,11719.7,13399.5,15203.2,10387.8,14841.0,16295.9,16983.8,14634.6,22032.7,49179.6,20058.2,103639.0,56308.4,11604.5,45099.9,81400.8,131096.2,17260.1,20679.4,0.0,16554.4,
462,0.211,11367.7,16188.9,18256.1,18620.5,15931.3,18764.2,19960.7,5628.9,17705.3,15814.5,13222.7,116785.2,44694.0,4582.7,28323.8,68151.3,64484.3,18658.0,15130.9,0.0,9886.6,
463,0.18,15230.5,21113.8,20766.0,19986.7,23521.8,26578.4,28472.1,14605.4,28314.7,15819.2,16138.5,131365.3,40268.9,9818.6,40609.0,68114.2,57000.8,24479.9,14384.3,0.0,18938.7,
464,0.341,10232.2,11148.9,12924.0,12397.3,12768.4,14518.2,13156.3,16471.3,24609.3,63056.1,26415.6,134187.8,65831.0,10699.4,73607.8,143926.3,162861.5,17786.1,22577.7,0.0,23303.7,
465,0.591,13058.9,19046.1,25789.3,20579.2,19673.9,25519.3,26417.8,14503.0,21979.3,12657.7,25619.4,80754.9,28138.8,11959.3,41675.6,83007.0,75088.7,17756.1,13713.9,0.0,15081.8,
466,0.319,9986.1,11798.6,13016.6,11397.0,9268.4,12316.3,12015.0,8340.2,10106.6,36353.1,17724.5,78028.3,42315.1,9212.0,100316.8,46597.5,55511.2,16057.7,16339.8,0.0,21705.7,
467,0.229,9308.8,10316.1,11577.0,11942.8,16258.6,16559.1,16069.2,16266.0,25429.0,28753.6,21401.8,59971.1,44793.5,13009.2,70317.1,43251.1,50805.6,20334.0,18085.8,0.0,24051.4,
468,0.243,17290.7,18439.6,20257.6,14850.7,22598.8,23158.1,20343.3,20665.0,24982.3,15431.8,24989.2,43134.7,20383.6,15087.0,35297.3,71831.4,24673.7,12365.7,11852.7,0.0,35212.4,
469,0.269,24407.0,41161.7,55789.6,47707.0,52453.8,71308.2,67600.2,31552.7,73091.5,30634.0,22761.5,61986.3,57838.3,16345.5,58138.9,48583.8,58397.6,51004.3,35004.9,0.0,37905.9,
470,0.359,22576.0,30515.6,44864.1,35653.2,41365.1,51861.6,49687.4,34433.4,75032.7,23107.3,23935.0,46190.4,45767.2,25781.9,44166.1,21423.0,31876.6,43086.3,34510.0,0.0,27130.0,
471,0.25,11484.2,14588.1,17542.6,18163.1,19478.5,22903.5,22885.3,16504.0,38579.5,35309.0,18478.8,74915.9,52429.3,9241.0,41359.8,44528.6,55894.7,30030.1,24890.4,0.0,16747.2,
472,0.181,21956.6,19899.9,21770.7,19513.6,23046.9,26146.5,23694.0,26292.7,44501.7,23241.9,23593.1,103613.7,28116.8,17585.3,69201.0,60486.1,35709.7,26262.2,17362.5,0.0,46131.0,
473,0.464,24602.5,22411.2,18434.2,16270.3,21167.2,24879.3,20229.3,20323.6,30649.2,20276.8,27591.2,56184.9,20318.1,28543.3,44049.4,26657.9,36683.5,15453.5,20687.2,0.0,20834.9,
474,0.313,13711.8,14810.9,12436.0,12570.6,13939.6,14751.0,11942.6,13984.2,13155.9,57895.7,15610.7,155722.4,86178.6,14374.3,38125.4,75053.1,148056.1,15864.3,25729.4,0.0,20829.6,
475,0.297,30324.2,37468.2,52870.8,38613.1,47673.7,57738.6,56301.4,33397.7,65697.9,59948.2,21041.0,149295.3,55727.1,19911.2,92026.5,124200.2,109055.4,47534.0,58397.3,0.0,34018.0,
476,0.254,19272.1,27803.5,36094.9,28272.9,24451.4,30363.0,33565.1,13933.2,33838.7,32776.5,28665.5,143172.6,20324.5,10617.2,89956.6,188737.6,48597.2,28338.2,39525.2,0.0,31860.1,
477,0.286,21464.0,25290.8,30669.6,27893.7,22767.0,29683.3,28052.6,9927.1,23659.2,20259.1,16363.4,199225.9,24755.0,6502.6,56285.9,136390.7,67113.9,15784.3,27157.9,0.0,26055.0,
478,0.186,21091.6,26540.0,29947.9,23409.6,22281.9,24357.3,22654.7,22012.7,24675.0,20288.9,26709.6,241857.9,66045.9,16263.3,52510.5,156096.5,156347.4,18618.5,17220.2,0.0,26285.0,
479,0.206,13344.1,14546.0,16672.3,13151.1,20305.0,24176.4,20947.7,19133.7,42419.0,28171.7,13807.8,123402.9,35522.4,12091.0,63097.1,83004.2,48267.6,27910.4,21349.8,0.0,24303.3,
480,0.224,18631.3,32637.4,43283.0,46832.7,32167.1,37820.0,46633.2,19453.3,50344.6,34865.0,18910.0,149095.7,62301.0,7673.9,62408.7,116443.9,61251.6,47982.5,40233.8,0.0,25416.8,
481,0.252,18576.5,22968.1,29271.4,20261.0,30236.9,34596.2,30805.4,19400.1,34825.4,29091.3,20240.2,195270.6,51280.3,14806.3,61788.6,157548.9,172907.9,19958.3,15590.4,0.0,28302.2,
482,0.195,6499.7,9190.8,13280.7,14866.0,10385.6,13811.4,13453.9,8716.4,26620.1,78815.0,20076.9,155886.6,101794.8,4712.1,18170.8,113094.8,235536.5,28760.5,26321.5,0.0,37984.2,
483,0.21,21697.0,30297.2,34580.8,28101.4,32940.7,40077.9,37497.2,25860.1,42070.0,38268.5,29533.0,247510.2,74628.7,15816.2,80305.0,176474.1,150225.2,31223.3,17708.7,0.0,23384.4,
484,0.288,13419.8,22438.6,28200.3,21561.8,24292.7,33390.4,33298.0,13250.9,29979.9,28839.3,11126.8,168337.7,56014.1,8214.7,38237.3,77646.8,91679.7,25497.9,17996.7,0.0,15309.8,
485,0.183,8875.9,15521.6,20477.1,17522.7,12820.9,18908.4,16538.8,6301.1,10017.3,72116.0,25135.6,371313.0,115355.2,4801.4,87100.7,212240.2,368672.4,13163.8,12325.2,0.0,8761.1,
486,0.346,35982.7,47924.8,51067.4,34860.4,58314.4,69995.3,61123.3,41824.7,95529.6,24089.0,21485.9,243404.1,68229.4,18918.3,109706.5,108530.0,161299.9,50968.7,31751.0,0.0,17249.0,
487,0.194,9813.8,9540.5,7074.3,8077.6,9873.7,11893.8,8535.2,10089.6,20442.3,17384.2,12843.9,202815.4,56480.8,8696.3,73072.3,80710.3,78747.1,13883.0,12217.6,0.0,25251.6,
488,0.18,12238.3,14714.0,20001.6,14395.6,14333.0,15979.8,14876.4,7476.7,9599.2,14830.7,9466.5,147422.1,22661.8,9179.1,65980.7,48137.3,56795.7,8892.6,15247.0,0.0,39267.9,
489,0.255,20931.6,24172.8,32655.4,30574.0,25509.2,30060.7,31298.6,21272.3,38601.0,75944.5,22085.2,268211.3,132000.1,21370.0,93202.1,61517.2,104618.4,50939.3,48063.4,0.0,21270.8,
490,0.192,14678.6,22034.4,31737.8,37764.4,30837.7,45210.1,45516.2,29429.8,57696.7,64663.7,31325.7,183136.6,86151.5,14505.8,58618.0,167950.0,164105.5,54990.4,63178.0,0.0,21606.2,
491,0.218,20909.7,25135.4,29609.7,21096.0,27094.7,31179.7,26574.2,20683.6,20175.0,24514.4,14840.3,101339.0,27645.2,17817.1,38423.1,103894.5,117043.8,18402.1,18392.0,0.0,41224.6,
492,0.212,17070.5,18674.8,25468.2,26110.6,27794.1,27897.0,30221.6,25240.4,41383.6,25561.2,18400.9,63921.9,44200.4,15262.1,45742.3,35342.7,36503.2,37994.8,29507.1,0.0,17234.4,
493,0.404,21808.6,34370.9,35418.9,37793.3,32120.9,40035.3,40796.6,21345.0,38868.3,39962.1,26110.5,155477.9,73468.7,16398.9,38513.3,86303.7,156675.0,36435.4,44590.6,0.0,23857.6,
494,0.492,28472.6,37117.4,33427.6,27373.0,39763.9,40250.6,36952.5,29221.6,39140.8,27150.9,13423.4,107613.1,27575.0,20316.8,23194.8,96903.7,95701.8,30142.8,33940.5,0.0,31915.3,
495,0.183,9733.9,15049.9,17571.9,12867.1,14499.9,16676.0,14927.3,11125.2,14074.5,53314.9,14533.8,154889.3,85245.3,9350.7,93146.9,87242.4,252186.7,13093.2,15731.9,0.0,21889.5,
496,0.207,18711.8,24972.2,27273.8,22766.6,30304.2,36092.9,32901.8,18280.2,49688.4,32571.8,19309.3,118774.1,48398.3,8970.9,23730.9,100555.3,113286.8,31399.0,19355.9,0.0,23045.9,
497,0.185,14805.0,19512.6,21005.0,17867.3,17164.0,23835.0,20634.0,17211.4,25846.9,46344.2,11640.7,154953.6,71824.5,10602.3,41326.4,91437.4,102506.0,29845.4,27822.8,0.0,26535.6,
498,0.163,6589.8,9044.7,11385.4,10549.4,9786.2,13166.3,12698.3,9251.4,20965.9,26916.4,22751.9,98648.4,27997.7,6260.0,27169.5,60524.3,89388.6,14533.9,12999.1,0.0,17444.5,
499,0.285,24848.7,29157.0,30088.0,30000.4,33074.3,36675.0,35226.3,19293.9,38663.1,33560.4,14421.3,41927.9,30756.8,15870.8,37403.2,26245.0,36033.7,30461.0,32548.4,0.0,18969.6,
500,0.178,14297.0,16166.4,14431.2,10072.8,20286.1,24046.4,15387.8,15013.7,21578.5,31756.1,21776.3,95506.5,42660.5,9555.8,35131.2,85651.7,77027.8,14919.3,15433.7,0.0,18922.2,
501,0.216,20405.6,29455.3,39717.3,30474.1,27188.2,32896.5,36678.6,19015.7,27096.6,41369.3,15827.6,91359.2,42984.7,12619.9,70752.5,60544.7,72924.8,35055.4,37907.5,0.0,39043.2,
502,0.186,20617.5,31850.7,44025.0,40918.4,32094.8,44465.7,48194.6,15900.3,32347.0,43179.0,30468.5,210279.4,84209.9,11372.5,87190.8,165392.5,154074.4,27682.9,31520.0,0.0,26369.6,
503,0.21,9467.3,10063.5,9337.9,10553.9,12694.6,15737.1,15781.9,13832.9,33147.9,29755.9,13590.4,108202.8,57495.3,9952.3,33309.4,37702.3,90659.4,25768.7,20931.8,0.0,19014.0,
504,0.194,10886.8,13969.4,14926.3,14116.6,13735.8,16351.4,13884.1,13707.0,16721.3,40328.7,13661.0,63918.1,49391.3,12016.8,28068.6,28023.0,34735.1,19162.5,41689.0,0.0,23146.3,
505,0.197,15098.9,21343.2,25717.6,15857.8,26854.5,37124.3,32804.0,18475.1,43332.0,24367.7,19610.7,104352.1,41407.1,8125.2,36404.6,85303.4,65324.0,24029.4,12904.4,0.0,14912.2,
506,0.384,21331.4,30548.0,24670.9,16862.3,30684.6,29980.8,26038.8,16135.7,28696.4,27309.9,13373.4,97789.7,45944.0,9985.0,36429.7,54713.1,107692.2,14454.0,15536.7,0.0,30090.0,
507,0.221,14185.2,15869.0,16887.2,16253.0,22208.9,24007.1,22572.2,17857.4,37338.9,34654.2,14209.1,106859.2,44379.2,13531.9,34752.4,70003.6,96309.5,23992.2,19501.0,0.0,27710.9,
508,0.281,13976.3,24520.1,38134.2,37127.9,30762.8,37461.6,41104.7,15397.7,44583.2,47082.6,28824.2,84120.5,66369.3,13088.4,21531.0,38913.8,74796.2,50800.7,56967.9,0.0,15249.1,
509,0.236,13245.0,21294.7,19586.5,20893.7,20194.3,25754.5,26968.3,16528.4,27722.8,18738.8,18233.1,52256.3,27453.9,10868.2,47955.0,52608.4,38661.3,20709.5,23665.6,0.0,33675.5,
510,0.236,29639.8,32682.1,31059.1,18841.3,35698.9,33536.2,26600.8,37796.8,17039.1,32320.7,28538.3,37147.6,20069.0,35610.0,26185.9,45501.6,48343.7,11625.3,22187.2,0.0,49646.7,
511,0.222,15838.6,18058.1,19018.9,16488.3,22173.7,22448.5,19322.6,20822.5,18298.9,28316.5,25690.4,26714.9,29109.1,20996.3,40084.4,35016.7,27604.8,19520.9,25487.0,0.0,31225.6,
512,0.245,25910.0,30838.7,31996.8,30784.5,33653.6,38155.0,35621.3,22612.2,38966.0,22765.7,9951.7,55401.2,47946.5,18849.3,18964.5,27645.2,24257.2,41110.2,41516.8,0.0,43993.4,
513,0.217,14169.0,13187.0,11503.8,16950.8,12056.7,11845.1,13277.7,14574.3,18493.8,28558.2,16696.8,68545.3,34480.2,15557.5,28775.3,47195.9,19312.0,25201.6,34739.7,0.0,38311.3,
514,0.273,8823.8,9878.3,11877.4,14544.2,14510.8,15545.6,15582.4,18146.0,32047.4,33422.4,31464.8,143281.0,62908.2,15721.1,49021.6,100327.1,70620.7,24152.9,18473.7,0.0,12092.9,
515,0.294,6063.5,9413.3,12971.0,11194.7,9010.9,11112.5,13051.1,9400.2,19149.2,9045.4,14959.1,38163.3,17080.5,6611.0,20244.8,47866.3,17906.3,16666.4,9749.9,0.0,18469.7,
516,0.253,14565.1,15605.0,17128.5,12498.7,20332.7,20604.6,20286.1,18981.0,32037.8,14251.3,12752.1,41107.5,20841.3,11717.0,27897.5,31989.3,29928.0,15590.2,13545.5,0.0,29795.6,
517,0.636,11312.5,12522.8,19878.1,27466.1,14119.4,18572.3,19380.6,14883.9,16800.0,39232.6,20721.6,26303.4,25467.4,14027.4,25488.7,28744.5,24163.8,24008.7,40044.0,0.0,15702.3,
518,0.218,15992.6,14067.2,13175.8,11622.7,12605.3,13117.7,11371.0,10619.0,11822.5,18643.3,12146.0,59567.6,28573.8,11025.7,27896.3,76105.5,80913.0,9872.8,11614.4,0.0,25369.9,Visuals coming back in against a very nice tranquil equanimous body. Wide open awareness  including sounds and body individuals. A lot of purple-pink mist stuff.
519,0.448,20291.7,26023.9,25628.6,19045.0,28810.2,30894.1,28095.8,15410.1,31672.2,40938.5,22109.8,230450.5,58750.6,9792.9,41526.3,229724.1,211699.0,24435.6,20967.5,0.0,20863.9,
520,0.33,13847.3,18659.1,23422.8,21863.2,17544.4,21980.5,23430.2,31259.8,26285.9,12440.2,35578.7,172992.4,30855.1,12873.6,73902.7,203088.7,88168.5,21410.8,16696.4,0.0,27517.8,
521,0.459,26962.2,43772.6,58092.5,53620.7,43103.2,52801.7,53997.9,22701.5,42873.3,20397.3,14754.9,93238.0,18709.1,13432.5,37083.5,95729.1,51147.1,41542.3,35114.7,0.0,28734.5,
522,0.586,38723.0,55696.7,80223.9,46831.7,60082.5,72366.0,67327.1,30579.4,70804.9,73999.4,33302.8,123472.3,80880.0,19229.1,31183.3,155129.4,267972.3,46423.0,31145.9,0.0,32649.1,
523,0.823,15219.6,16671.1,13014.7,15098.1,19992.2,20894.9,16870.4,54913.9,34243.2,16192.6,21832.9,80624.9,29094.5,36175.1,39301.0,53491.4,51293.1,18072.4,15265.2,0.0,18887.8,
524,0.441,25996.0,29831.3,27588.3,31497.8,33185.5,34367.4,32192.6,32195.1,41908.6,23791.6,24389.2,121792.5,50420.3,21851.8,41060.3,59777.5,46879.0,34430.3,29875.5,0.0,16938.7,
525,0.268,13532.6,18488.5,19372.4,18707.1,19867.2,19954.5,21748.8,18945.8,19097.0,13897.6,7800.2,25875.2,18589.4,17174.9,16244.0,23074.8,30638.3,21000.5,14476.8,0.0,24321.0,
526,0.235,13608.4,20845.9,25960.3,26723.0,20940.2,25383.2,26827.9,15646.0,25761.6,35325.9,9094.3,51818.3,28952.3,10923.8,18192.6,19523.6,70515.3,25257.7,35069.7,0.0,36416.2,
527,0.217,17845.4,22634.4,23456.6,20404.8,24119.6,24831.4,22962.7,22009.5,31085.8,21776.4,11167.2,11452.2,13384.5,11527.4,14303.4,19698.7,7739.0,23752.9,23735.2,0.0,25694.5,
528,0.176,10150.8,10054.6,13463.5,15178.6,10103.7,11883.0,14998.1,10964.9,12928.9,27223.5,9579.5,29761.0,21412.0,8761.6,15376.0,30686.9,28871.0,19850.7,22119.5,0.0,21470.4,
529,0.373,18707.0,17943.7,17009.7,12082.9,19554.1,18989.1,17706.0,21225.9,20495.9,23752.2,20913.3,39335.3,22134.0,19430.0,28838.2,54107.9,48381.1,18566.3,16213.3,0.0,11801.5,
530,0.166,10769.4,10697.8,10208.3,8999.6,11718.4,13268.6,11899.0,9335.5,12387.0,14701.8,10081.9,18795.9,13129.1,7975.7,16207.6,30866.0,33674.1,11756.0,12869.3,0.0,31166.3,
531,0.531,23690.8,24952.2,23959.0,25280.0,25643.8,27389.5,28094.0,27406.4,29815.3,39936.1,22219.6,115639.9,59796.0,19719.9,42496.8,91276.0,83692.9,33187.6,31696.2,0.0,30726.2,
532,1.84,16914.4,24570.6,24671.1,22010.9,17109.2,19225.4,20304.1,34484.8,16499.3,32976.7,25275.1,39715.1,29734.1,17626.3,42400.9,84849.0,46976.8,22538.5,27575.3,0.0,9266.5,
533,0.579,17198.4,22305.7,27436.4,26074.4,22767.5,22410.3,25350.5,21219.9,23293.3,21002.3,17048.8,51597.9,32573.2,13698.7,23773.4,75500.1,51559.0,26102.5,25086.5,0.0,29633.8,
534,0.388,19100.7,21745.9,23015.2,21894.8,19545.6,20563.6,21417.6,51416.3,24174.3,42835.2,35782.6,132962.0,51166.9,22560.8,52761.5,105484.6,146578.3,21526.0,27317.1,0.0,21371.7,
535,0.315,14470.3,19055.2,21304.3,20617.7,21543.8,23921.9,21321.2,19020.1,33116.5,15703.7,9837.7,151738.8,49134.2,6273.8,21335.6,63701.5,112040.2,25451.9,16601.1,0.0,12794.9,
536,0.29,5874.9,7721.8,13199.9,14791.5,10535.2,13502.7,13540.6,9027.6,23268.5,23435.6,9415.6,67590.3,25428.0,8426.6,21225.3,39068.4,75748.5,12911.4,11841.1,0.0,21184.4,
537,0.207,10755.7,14342.3,22229.2,26557.7,20005.5,24235.3,27792.0,18290.5,39904.7,47037.7,7546.7,147938.8,81739.7,10625.2,30247.3,58609.1,126847.7,41375.0,35364.3,0.0,15652.9,
538,0.247,15621.7,16651.9,15410.2,15091.5,16078.9,16766.4,14831.6,12668.2,19817.0,11927.5,14337.9,23695.5,18359.4,14937.7,17286.1,11537.0,22808.1,15036.4,13448.1,0.0,61469.7,
539,0.337,12016.3,13181.2,15738.9,16700.2,17056.4,16259.8,16139.5,15597.6,23741.2,18330.3,15977.1,24606.1,17313.4,11852.6,14517.4,37811.8,24614.2,14395.3,15538.0,0.0,20645.5,
540,0.207,15466.7,18265.4,23275.3,23977.5,17790.0,20756.8,23260.9,15486.4,22716.7,23996.7,19974.5,13573.8,20437.8,19206.6,30075.0,13627.7,14737.0,22865.5,26626.0,0.0,44522.3,
541,0.174,8018.6,8228.4,9011.5,5983.3,9924.4,9462.2,10398.2,9074.9,13352.3,6053.4,8976.5,20409.5,12707.5,10524.6,14563.7,12564.1,13190.8,10138.6,11743.2,0.0,14231.2,
542,0.176,6341.6,7382.0,9257.3,12231.9,10319.1,11785.4,11677.5,7837.7,17141.5,16027.0,9891.2,14547.2,13055.6,6569.0,8873.9,13216.3,11918.3,13233.4,20291.6,0.0,16890.0,
543,0.455,25731.4,30034.1,31891.0,24385.8,32308.6,31447.9,33879.8,26201.3,33909.4,26549.0,15556.5,26456.5,24411.9,18361.9,26969.7,16974.1,30593.8,26296.0,18263.8,0.0,22183.0,
544,0.323,16307.9,16909.4,17917.7,15268.8,20140.8,21413.4,19675.9,14688.9,23580.1,21642.5,7478.6,43183.1,29225.2,13333.2,18573.4,17443.8,26612.7,23632.0,23258.8,0.0,21451.5,
545,0.49,13259.0,16403.3,17548.3,16352.6,11453.2,13222.0,13614.6,13770.1,11562.7,9301.7,11845.8,16401.9,13252.4,11084.8,14383.8,24930.7,16027.8,11871.7,10733.5,0.0,27366.2,
546,0.268,7591.9,9645.4,14384.6,16770.5,8540.4,10949.9,12554.2,10719.2,14616.6,13829.2,15460.9,16565.6,13672.5,7854.0,13431.3,12222.3,10425.4,13548.1,10326.8,0.0,25916.6,
547,0.348,9899.9,15504.7,12227.9,11677.6,14458.3,15106.5,15417.5,18387.3,17770.5,18517.1,14066.8,12154.1,14967.7,59519.1,18459.1,14679.6,11706.2,14747.6,16751.6,0.0,31674.2,
548,0.295,17982.5,17737.1,18830.8,14924.9,15790.1,19830.3,16791.2,22916.9,24286.3,15791.4,13683.9,22142.6,17139.2,20468.6,39587.2,16390.1,21016.2,19041.0,16245.0,0.0,21825.6,
549,0.234,13514.8,12156.9,9468.9,9419.2,11764.0,13173.7,10888.2,15279.6,11417.6,13814.9,19941.5,14552.6,12696.9,19140.8,33776.3,17768.1,15305.4,11270.1,10655.3,0.0,24951.1,
550,0.213,7373.2,9911.5,10456.8,11326.3,9511.7,11625.6,12551.8,12858.1,10774.9,15159.3,10171.0,18227.7,13386.3,10423.6,17623.4,14840.1,13731.5,13454.5,16009.6,0.0,20214.9,
551,0.183,7365.4,8816.1,12192.9,15823.0,10591.3,13072.5,16428.1,13495.0,18867.1,15744.6,9546.4,18834.1,17979.2,8102.3,20528.9,17552.2,18342.8,18808.3,15792.0,0.0,17384.8,
552,0.192,12126.8,14029.3,13472.9,13918.8,15804.6,12900.7,12442.2,11496.1,12191.4,20420.8,9127.1,34666.9,21360.6,8572.9,16675.7,25060.0,47447.7,15399.0,25128.7,0.0,23410.2,
553,0.301,12653.9,11110.9,11052.9,12419.2,13236.8,13718.8,13161.1,16122.7,19053.1,14877.4,15261.5,32201.1,22373.3,16858.9,27169.1,19494.3,22537.7,16860.8,18867.0,0.0,31833.3,
554,0.33,18870.7,20191.8,17001.2,17512.8,20374.3,22220.9,18451.7,17443.2,16698.1,20363.6,15120.2,15411.5,17466.0,16275.6,21355.1,21300.7,16406.2,16802.7,27605.2,0.0,40270.6,
555,0.293,6067.5,7066.1,6457.2,5138.8,6917.9,7530.1,7025.6,5304.3,7334.6,5696.6,8435.0,7439.5,7237.1,7656.8,11971.8,10049.0,7414.1,6751.9,7180.3,0.0,25525.2,
556,0.159,10337.8,11750.1,13616.8,16577.8,11248.8,12547.5,14735.8,7982.7,16046.3,23979.0,6363.2,7970.2,14326.0,5347.4,6297.8,16248.8,16862.0,14222.0,23432.0,0.0,30022.4,
557,0.192,6535.3,12007.4,18837.4,20493.8,14056.8,18474.1,18792.4,10196.9,18378.4,16963.8,9417.0,15069.0,17159.0,6854.2,19179.8,10275.4,16080.4,19490.1,18370.4,0.0,9125.4,
558,0.301,21234.7,28281.2,30002.5,18407.0,32614.3,39926.1,37398.6,25236.2,44194.7,33563.5,22202.5,68351.5,37225.0,20014.7,25523.4,87295.2,82193.6,31552.3,27374.0,0.0,40693.2,
559,0.347,15681.9,22924.1,27573.7,24901.8,20786.7,25095.7,24429.4,15838.0,24721.8,33699.3,15247.7,44131.2,31215.1,17587.5,28467.2,21633.7,38753.2,26851.8,30946.1,0.0,28968.7,
560,0.234,24367.3,20528.4,17581.7,15340.4,23214.8,18602.5,18075.8,26711.1,17161.3,20512.3,31718.2,27996.6,22996.5,27416.0,41587.5,27345.1,20165.4,19565.0,24555.0,0.0,19158.8,
561,0.191,11250.5,13562.7,11646.2,11329.8,14845.4,15640.7,13599.2,14798.1,22519.9,37322.3,14141.9,136821.7,55420.1,10461.0,52417.2,120016.9,164753.0,18041.1,17120.0,0.0,9928.9,
562,0.221,15975.0,18202.6,20411.0,21983.9,23737.6,25948.0,27761.9,19299.0,41754.1,18064.9,5363.3,118848.7,41004.0,9609.4,18104.5,14822.5,53984.3,30514.5,24686.4,0.0,33043.8,
563,0.269,16142.2,19752.6,27820.9,27988.8,24821.2,32057.7,36886.4,13757.8,46375.4,28309.1,15616.9,82942.9,60113.1,7464.0,16735.0,50660.1,41734.8,44953.3,25610.2,0.0,20172.3,
564,0.191,10526.8,13650.7,19086.4,16206.8,18754.9,23468.1,23298.8,15037.2,28433.4,28831.0,12893.8,41927.2,50672.6,9204.5,13179.3,35609.9,55034.5,26859.9,19573.8,0.0,20766.7,
565,0.241,10938.1,14758.5,20171.9,22359.1,12286.8,16130.4,18520.3,14706.1,21858.3,33468.6,11728.1,34283.1,37850.3,8163.5,27720.3,16602.5,27210.6,27320.0,29286.8,0.0,28255.9,
566,0.262,10590.1,10519.8,7859.5,10634.9,9049.3,9590.7,9783.5,8948.5,17247.1,21859.1,12753.1,48296.8,51554.2,9628.3,30685.7,23281.7,35693.3,23559.4,21838.2,0.0,29586.7,
567,0.23,15069.7,20572.3,23371.6,21511.3,17704.6,23277.2,24018.0,17073.4,20840.6,15463.5,14867.0,20413.8,18981.5,12542.0,26689.7,19768.8,16089.1,18594.6,19874.6,0.0,35883.5,
568,0.232,9620.1,9644.2,12553.8,11081.7,9672.7,11885.2,11641.8,12496.0,12831.7,7154.1,17082.3,24410.0,11246.1,13137.9,61509.2,18093.5,14541.2,10410.3,11740.8,0.0,32938.7,
569,0.388,12613.9,9806.3,11452.1,10402.0,10228.8,10352.5,10772.8,13328.9,11165.6,13593.9,12079.4,17131.0,14420.9,12582.3,13433.7,16543.0,13257.2,12820.3,17422.2,0.0,15437.5,
570,0.206,9866.5,9628.4,11669.3,20345.7,9519.0,12221.6,14506.4,13826.9,19283.1,48624.2,10674.2,46496.2,75241.8,11179.7,31915.4,25037.8,71098.0,36149.6,47188.8,0.0,26447.3,
571,0.217,10258.4,20306.6,29478.3,28564.4,20367.6,24015.9,26746.6,9039.4,25091.5,36232.9,7900.4,25005.6,51671.3,6134.8,21483.2,22849.6,28729.2,36623.1,44886.9,0.0,16934.6,
572,0.298,11942.2,11424.1,10681.1,9954.9,14403.6,15563.5,13965.5,17725.3,24124.0,25703.8,37217.7,48523.5,28828.7,16093.7,57163.2,71455.8,47114.9,14311.9,21538.8,0.0,24481.3,
573,0.27,13339.3,11873.2,9083.8,10037.3,13356.8,10357.0,10625.1,20670.0,18705.1,16794.3,20548.4,37631.6,14252.7,15749.8,44590.7,36071.9,23043.6,12956.4,15578.0,0.0,29476.1,
574,0.186,14449.1,14404.9,17774.1,20028.5,16919.1,20429.1,19331.6,16629.4,20841.3,27380.4,8213.3,46681.4,32815.6,10053.4,16614.4,22067.1,30297.7,30263.1,32025.1,0.0,33525.8,
575,0.197,14592.7,14956.0,20915.1,29526.5,15492.1,18027.2,21700.0,27028.3,26129.6,37174.7,25117.6,47648.5,42908.6,21694.7,85139.6,29122.3,29648.3,30193.3,47195.7,0.0,47906.1,
576,0.31,24529.6,19657.5,21619.5,18606.9,20470.7,20975.2,20300.6,24509.8,21911.7,22665.4,29828.5,37666.8,27730.1,30311.8,45103.5,30901.5,25806.5,20133.4,26861.6,0.0,35678.2,
577,0.27,19891.0,21979.0,22636.7,24949.1,21979.1,21641.8,24449.9,25117.9,24531.6,24611.7,28144.3,82740.2,36200.2,25267.3,50956.7,57022.9,32485.0,27880.8,29944.5,0.0,29875.5,
578,0.341,19096.7,19166.5,27162.0,25216.6,26652.0,31419.8,30325.7,24644.6,41722.5,25835.7,11567.5,68459.5,42555.1,16433.5,60144.7,21716.2,26305.6,33888.5,23504.1,0.0,20741.1,
579,0.581,6244.8,6334.4,7502.0,8984.2,7531.2,6769.8,6619.2,10720.6,12941.8,13070.5,8893.9,34573.2,18718.5,6742.1,33925.6,21620.6,22512.4,14628.4,12639.7,0.0,20699.8,A bunch of fast wiggly fingers and sequined sheets.
580,0.308,7820.5,12438.8,18103.7,15205.1,13701.8,14686.3,16854.2,13140.0,11736.5,17477.4,9605.4,9663.8,13003.6,7445.6,42409.6,13732.6,13417.5,14006.2,16367.1,0.0,25493.4,
581,0.374,8450.9,8829.7,8134.3,7069.7,8331.6,6645.7,8146.3,12763.0,11686.5,9062.9,10600.8,24247.2,16771.8,7525.6,17966.0,23607.2,21357.2,10644.7,9811.9,0.0,17137.3,
582,0.243,11979.3,12918.6,11858.3,7350.5,16336.6,18398.6,12733.7,13344.6,19662.0,17473.7,8407.9,72926.4,26406.6,9998.6,27685.1,40977.5,71154.0,10074.2,5715.0,0.0,27952.0,
583,0.191,5153.8,6659.6,6221.6,8305.5,6635.1,6687.5,7469.4,8233.0,11436.0,10482.8,8823.2,33127.9,22221.1,5667.4,14751.3,12942.1,23140.7,12491.3,8165.6,0.0,28461.5,
584,0.435,17799.2,15252.0,15685.9,20691.0,18321.9,17206.3,16160.7,18511.6,17242.0,17957.2,16765.8,41886.8,16316.0,18652.4,42174.9,42331.7,34050.0,16236.1,14832.0,0.0,34321.7,
585,0.294,24756.0,27725.5,31503.2,38057.9,30580.2,33041.1,33305.5,28107.7,45955.1,39781.0,25004.8,148611.5,58975.3,25111.0,55339.5,50738.5,63611.6,41596.6,36623.0,0.0,36262.8,
586,0.177,8394.2,9621.0,13594.8,13649.9,14057.2,18508.1,17204.9,15224.3,30608.4,13374.4,8143.5,75959.2,23375.5,7960.2,33698.0,21283.8,21334.8,17294.7,19415.7,0.0,21323.4,
587,0.282,14021.3,10852.9,11190.2,12388.2,12266.8,12629.7,10335.2,15198.8,16615.8,18041.8,12350.3,32336.7,26665.5,13039.0,23701.3,19078.0,27077.6,19114.7,25382.5,0.0,15165.7,
588,0.502,7147.7,8203.9,8559.7,8005.3,10696.5,10836.3,8409.2,9387.5,10792.3,11585.5,10114.2,22749.4,13792.5,7240.8,33889.9,18897.7,15883.3,12399.2,11732.9,0.0,21137.5,
589,0.267,23484.2,23366.9,24501.5,21937.7,25669.8,27599.4,27178.5,32728.1,32830.3,36959.8,25603.9,26523.3,36670.7,36472.8,28308.0,25584.3,30774.2,31498.6,35621.9,0.0,25643.4,
590,0.166,9259.2,10810.7,11434.0,9625.2,12173.3,15734.6,15527.9,7682.9,13894.9,10740.9,11245.8,10731.9,14504.3,12576.0,25481.7,23073.9,8859.1,13068.4,11498.7,0.0,17515.6,
591,0.153,12209.4,10805.6,9563.5,9869.7,13476.0,12339.0,12170.2,17147.4,25650.6,23573.9,14306.8,91313.2,37143.8,15212.4,31768.6,31419.1,43770.5,19218.7,19562.8,0.0,26614.3,
592,0.195,13121.5,12667.6,14734.6,16337.7,19629.8,20156.5,19774.3,20830.2,40713.0,15477.6,16738.9,183457.7,43438.3,12603.1,54342.3,61257.4,36774.4,27946.8,22864.7,0.0,19246.5,
593,0.231,13244.5,16083.3,23332.5,25747.9,22667.4,25478.4,26648.6,21681.9,40068.7,25601.2,25586.2,124182.3,42469.0,15580.8,38874.0,69805.0,41570.4,32572.4,27297.9,0.0,33022.1,
594,0.181,9845.2,6997.3,7712.1,9864.5,10464.9,8883.1,10260.5,12701.4,13806.6,25333.3,14496.6,57077.2,31192.5,12476.7,46866.6,18721.3,35584.8,13564.3,18412.4,0.0,24337.2,
595,0.238,8930.4,9181.9,12754.1,12233.4,9847.6,12600.8,12143.9,12086.7,16804.9,12487.6,13040.0,37297.7,22202.2,13246.5,29274.2,18161.4,24324.9,13682.6,13491.9,0.0,32652.7,
596,0.217,15073.5,18170.1,24567.3,19340.8,22441.9,25180.2,26284.2,16296.7,32023.3,23696.3,12941.0,34809.9,29334.9,7468.2,17434.0,24942.3,36951.8,26210.6,18648.2,0.0,27021.6,
597,0.311,16676.8,22306.1,29427.2,35263.5,25408.4,28306.5,29254.6,19249.0,20883.1,27340.9,21290.9,22398.6,32372.2,18667.8,19454.1,18411.7,19875.9,36937.4,49767.8,0.0,34114.0,
598,0.165,10011.9,13099.9,13610.8,12838.6,14190.9,15465.0,14092.4,9545.4,17462.1,16629.0,9249.6,32153.9,15249.1,5536.8,19038.1,38814.5,32285.7,10774.0,13585.2,0.0,31228.6,
599,0.258,11461.9,10260.9,12068.2,8184.9,9853.4,12078.3,9298.1,10563.3,9087.6,15873.5,10264.0,11221.2,14684.7,9908.2,52260.3,20285.8,18675.9,7313.7,9885.5,0.0,28669.5,
600,0.224,8610.1,12469.1,13760.6,11022.3,14372.5,13934.6,17412.1,13593.2,25389.4,16248.6,10502.6,32468.6,32937.4,6636.5,24177.1,18598.0,33291.9,21024.8,15086.0,0.0,22834.9,
601,0.239,18491.0,19900.9,22899.7,22049.9,19706.3,23974.4,22463.0,22168.8,27689.4,41324.8,20096.7,52183.8,58989.3,14897.5,47561.3,42424.5,47732.0,32402.7,34285.5,0.0,19861.8,
602,0.499,36580.9,45620.6,42741.8,41022.2,41932.8,37907.2,40386.8,40968.3,43500.4,48983.4,42255.4,94214.6,67470.1,38702.8,88310.2,103589.2,85683.0,40738.9,39869.9,0.0,56310.3,
603,0.25,26379.2,23160.5,26231.9,25782.0,24355.9,24085.2,24841.0,23210.1,24196.7,29901.4,32115.6,31581.7,33891.5,31931.6,66957.3,31745.3,44470.3,23681.3,27791.7,0.0,52789.8,
604,0.273,31613.0,58153.4,66554.9,57275.3,72495.6,90297.8,88277.1,43381.8,99044.3,68759.5,20219.0,86151.2,71360.1,13969.6,65205.3,39529.7,65449.2,62928.4,37894.6,0.0,23931.7,
605,0.358,13117.7,13161.1,17173.3,18731.5,14742.7,19400.9,20165.9,16481.9,23330.4,19689.1,26187.3,99817.8,34622.6,16750.9,37903.3,59302.5,69212.5,18946.4,20618.8,0.0,26114.9,
606,0.23,15480.8,19449.8,23211.2,26732.9,15056.8,18782.0,19766.6,23355.9,18899.0,21456.9,19597.6,39054.2,27374.7,18185.9,29567.9,37708.4,28893.0,22824.8,30044.7,0.0,34011.9,
607,0.181,10826.1,14935.5,20327.7,15589.0,26134.5,27419.3,26478.5,25505.0,38464.7,25444.1,25819.6,59039.9,39312.8,16209.4,42144.4,47461.0,60057.9,24829.5,14737.7,0.0,22850.2,
608,0.315,16805.4,27473.8,33197.8,24630.4,25414.9,33772.2,34638.0,14927.7,29942.6,30342.3,14669.6,47817.6,38777.4,12530.3,35650.4,27276.8,33166.5,26597.4,24755.9,0.0,23995.3,
609,0.231,9220.3,8827.1,9923.2,11419.5,10124.7,10340.7,12672.0,20061.3,27656.9,26511.4,27328.4,54855.7,47439.5,18548.4,76626.1,31359.7,35995.3,24151.8,16436.7,0.0,17941.8,
610,0.201,26545.7,23030.2,22459.7,21642.6,26997.4,33430.9,26901.9,27627.0,39061.3,24935.8,17776.9,42773.9,28426.3,23909.3,46671.5,30547.7,31327.6,25970.7,22125.5,0.0,48029.7,
611,0.411,18086.5,22350.4,28096.8,28625.8,29738.2,34962.5,33612.4,24581.4,53984.3,28634.0,20388.9,63873.8,37867.0,18842.7,86255.4,54833.4,40948.4,30965.6,32097.4,0.0,13739.7,
612,0.212,17097.4,23935.4,24263.3,20315.6,24231.5,25532.7,24382.6,15870.2,18340.0,21969.6,9698.0,28473.2,13099.3,9004.6,57488.5,21348.4,27700.5,13469.9,16573.7,0.0,33350.6,
613,1258.496,863489.3,1443708.7,548358.3,13045236.2,316484.7,27170.6,33045.4,130291.2,98190.6,59386.5,46363.7,62391.1,52166.6,227840.3,25644.8,42790.9,47744.6,46425.8,57316.6,0.0,20700.7,FRUITION-CALC
614,84.408,125168.2,204402.5,81310.4,445292.2,91080.7,41162.6,43714.5,185673.6,189099.6,29200.4,57421.2,26039.4,26068.9,72578.6,65945.5,85029.8,36880.0,33110.6,53720.3,0.0,39140.8,
615,16.751,9474.2,14256.5,17530.3,25416.8,74547.5,18509.7,18198.1,41907.6,17661.1,21431.7,13509.5,23870.9,19469.8,13821.8,51011.7,29865.0,25561.1,19674.8,22717.5,0.0,29715.8,
616,0.304,17367.6,21500.5,15285.3,14928.6,20179.3,19958.3,19061.4,22671.5,36636.7,27654.8,18385.3,144235.7,48675.0,12739.3,26933.7,86769.0,100463.7,24557.4,18453.9,0.0,40770.1,
617,2.824,6558.8,6198.1,10055.9,11619.1,8914.6,10027.6,12315.2,16533.7,26348.3,45270.4,20936.7,197983.9,79958.1,18350.9,33894.1,65302.6,188192.1,22701.2,15709.6,0.0,17739.6,
618,5.508,20687.4,29572.5,29055.4,25632.4,26435.8,29646.8,30809.8,16887.4,35177.6,38119.4,19229.8,95480.5,40067.3,13797.5,101148.0,91105.7,118024.9,29034.4,28858.3,0.0,14100.6,
619,4.754,18061.1,17967.0,20375.5,18558.7,21802.0,22078.8,19460.5,16106.9,27863.6,27642.5,8217.3,60187.7,37567.6,15687.6,17622.1,14944.2,81799.6,21546.6,17944.8,0.0,23135.2,
620,3.48,13745.8,14888.0,15436.8,15417.7,20114.2,20624.0,21182.2,28117.4,48984.1,22303.4,26759.6,154308.6,56625.7,12329.6,59806.2,120732.9,95039.6,30197.8,12923.3,0.0,19705.7,
621,1.908,31664.9,34257.3,38252.7,37262.0,36136.7,35168.1,36234.0,38251.7,34371.1,41312.9,46744.7,47285.1,26183.2,25706.1,51848.7,123356.8,31214.9,32620.6,46737.9,0.0,51929.5,
622,0.697,13022.3,16846.4,18539.5,17616.5,16992.9,20307.8,20600.8,14321.7,33845.7,43566.9,24322.6,111488.9,55328.8,6863.2,70428.4,106770.3,79681.9,28316.5,25570.2,0.0,27327.8,
623,0.581,7584.5,10755.9,16864.5,15345.8,11236.0,14727.0,15724.5,12486.0,14777.5,21909.9,14846.1,51964.6,35282.2,10202.0,49928.2,33378.7,59622.3,14284.9,15017.9,0.0,20872.4,
624,0.204,10766.2,14212.2,15781.0,18963.9,12820.6,15927.1,15184.5,15564.2,21851.3,26244.7,15255.8,127537.4,70241.6,10979.2,49712.4,68350.3,105561.3,27176.1,20256.7,0.0,21687.0,
625,0.263,26365.1,38865.6,49575.0,44844.1,41552.8,50531.2,57634.8,33374.7,78220.8,44969.0,17397.5,208649.0,111907.8,17354.0,55797.1,117833.6,244855.5,57516.3,39928.2,0.0,26758.4,
626,0.213,6755.8,11460.5,17490.1,16751.2,13276.1,17949.6,20528.2,16885.9,23269.1,29403.4,27402.5,137874.3,49997.4,10741.1,66543.8,98375.5,83465.1,21712.5,24324.9,0.0,24279.2,
627,0.219,23927.3,30947.8,26293.8,17406.4,32236.4,34423.9,28887.3,26410.8,41118.1,73412.7,28597.9,336866.5,129092.5,18337.9,96125.6,192545.9,298394.9,30396.3,21193.5,0.0,31501.7,
628,0.179,17481.4,19037.6,18637.8,19187.3,17415.0,18386.2,21996.9,17349.5,20574.7,24046.6,25153.6,114492.9,33027.0,13361.6,102695.6,82212.9,49011.3,19688.9,31646.3,0.0,38789.6,
629,0.188,13872.9,17025.9,21299.3,21442.7,19391.0,20699.3,20354.3,19348.2,26122.1,15921.5,31434.0,123533.9,25604.0,15160.7,66328.0,124198.6,36969.5,21207.7,23867.7,0.0,46608.5,
630,0.243,11083.5,15574.1,25302.1,34229.4,14837.8,21829.5,25749.9,11209.6,24422.8,59469.3,20575.1,129270.9,89770.6,10981.4,70805.3,81716.4,132353.9,39104.7,34467.1,0.0,23202.4,That was a suffering and impermanence door fruition that took the breath as an extremely abstract  object. It looked more like a white sort of whiteish-pinkish moving very pointed triangle  in space. The most acute point of the triangle being the end of the outbreath. 
631,1.094,15222.4,12384.4,14742.0,13447.1,14269.8,12913.4,14039.0,15562.5,18292.6,17122.9,16268.5,38365.8,27322.0,13681.7,20039.2,32890.7,25781.0,17006.3,14202.4,0.0,42169.8,
632,0.405,11374.1,18414.8,17555.5,15632.2,15140.7,15907.0,15482.0,14035.0,28404.6,42779.1,33076.2,213540.6,71321.1,13919.6,87177.7,142644.5,178111.4,20994.5,19496.0,0.0,33152.3,
633,0.285,11557.0,14885.4,20751.4,74467.2,17900.0,20811.9,20465.7,10502.4,23527.8,25540.5,17695.9,67935.9,32951.8,7473.6,56644.7,75970.6,81843.2,20159.8,16087.1,0.0,13018.1,
634,0.459,22929.6,30075.4,36892.6,32612.1,32232.0,34656.3,35798.2,17841.8,39153.2,74612.1,19308.3,206085.5,126717.5,10174.6,97124.5,111478.6,232128.4,47135.6,35739.0,0.0,36031.7,
635,0.671,9610.9,10637.3,13917.8,14639.2,10337.1,14224.1,16319.6,22829.5,23906.2,46055.2,30539.8,169136.2,61959.3,9543.0,57856.6,155441.1,169324.8,24364.2,21519.2,0.0,16651.8,
636,0.172,11137.0,12376.8,20874.1,33535.2,18340.1,24125.5,27587.6,22756.5,46252.4,77001.6,31024.8,227471.2,136662.2,20151.0,87308.2,91957.7,221569.1,48407.0,47538.5,0.0,41213.0,
637,0.301,26647.4,38479.1,56382.4,45782.7,41854.3,54018.5,58975.2,35509.9,58723.1,41343.5,16207.9,215683.3,96205.1,11442.2,48312.4,86286.9,144996.5,57067.7,35265.4,0.0,34332.6,
638,0.189,11111.3,8934.4,14512.3,17381.9,10002.3,10350.5,12795.6,13293.6,14290.4,26023.7,22445.0,24710.4,19738.4,10170.5,40088.9,69241.8,36768.8,14299.0,20032.1,0.0,31122.2,
639,0.16,7240.4,6524.6,9758.3,10217.1,6655.0,6401.5,8474.3,6319.5,8489.2,37801.6,7730.3,16404.4,22766.6,6646.7,12696.0,25502.0,76259.8,8010.4,13382.0,0.0,31269.3,
640,0.31,7481.9,9810.5,12639.3,9541.9,13918.3,19265.4,14412.8,15308.6,23155.0,16754.2,30204.2,98416.6,26282.1,12240.6,48495.8,109290.0,47568.7,13748.0,11993.4,0.0,22833.1,
641,0.544,16142.2,22341.9,26719.4,25619.7,22917.9,29191.9,30092.1,16923.9,31975.1,25103.5,12104.0,196540.6,58441.3,11736.8,59305.5,71618.5,130749.2,25396.9,18704.3,0.0,33237.2,
642,0.487,18762.3,22766.3,30407.5,33466.2,19339.0,25921.4,25119.9,27028.0,22759.5,27016.4,16097.9,93903.8,43503.8,13890.3,29193.6,51886.6,101946.3,30394.6,30564.4,0.0,16866.6,
643,0.286,8200.7,12801.7,17608.2,17379.0,12019.8,13165.2,16293.2,158424.1,22172.2,22248.9,15368.1,55427.4,35797.8,10473.2,42062.9,38758.6,74056.7,17267.7,17983.0,0.0,15433.0,
644,0.429,15194.0,16942.6,21948.2,21342.1,18754.6,20114.2,22904.2,17400.0,32389.9,64299.7,23025.2,167038.3,112682.7,13682.3,46319.4,72676.4,218166.3,36059.9,26658.0,0.0,24161.0,
645,0.229,20346.1,29422.4,35589.9,33444.5,30240.2,36813.9,38419.6,24913.7,47892.1,43308.3,16772.4,106586.8,56277.4,15018.0,28012.4,57234.0,94616.2,43343.0,39025.1,0.0,51453.5,
646,0.446,18451.5,16062.5,17878.8,15854.3,15970.0,16260.2,18015.0,168084.2,15634.2,45172.0,23053.5,133500.6,59640.2,14125.4,83511.7,134904.2,177437.3,21635.5,20339.7,0.0,42334.4,
647,0.182,13801.3,11957.9,12357.6,16780.4,13674.0,13072.0,13538.5,10939.9,23319.8,28042.1,4663.3,135215.3,60920.5,7441.2,19962.8,37108.5,162345.2,18992.4,14747.3,0.0,22921.8,
648,0.192,15294.4,13128.3,15899.3,12083.8,15323.6,18080.3,18154.5,14817.2,26407.9,11483.3,16231.4,106935.9,35362.6,15723.1,20737.4,15821.1,35249.3,18794.8,10594.6,0.0,32413.3,
649,0.939,10504.4,19489.9,17873.2,14653.1,10436.5,12907.5,13809.7,9566.5,16944.4,36874.3,22266.4,111434.4,60111.6,11082.0,98405.3,63643.1,128656.4,18896.4,14230.9,0.0,23457.2,
650,0.241,13940.7,13820.3,10576.2,10792.3,15399.3,16172.5,13382.7,15546.2,26474.8,32556.2,13549.4,105946.0,58281.5,12506.1,69576.5,47460.0,96099.9,21247.6,18941.8,0.0,21749.0,
651,1.06,17343.2,26435.0,24314.2,21897.2,25230.6,28203.8,27684.2,28139.5,51663.2,54578.9,20720.6,301470.7,131297.1,12054.8,140048.2,99799.1,266741.5,45232.9,27771.9,0.0,26627.5,
652,0.324,8615.5,11378.5,16880.6,15624.2,15575.8,15173.5,17644.4,12111.7,25982.9,31778.5,8038.4,93774.6,60920.2,8166.4,59935.4,38200.5,102034.4,25089.4,16324.7,0.0,18795.6,
653,0.246,13149.3,14784.9,19336.7,16129.9,17231.3,21860.5,19731.7,27974.1,31242.9,21171.9,23482.0,154437.8,61291.3,13716.1,124742.2,45696.2,104233.5,25151.8,13238.0,0.0,31105.4,
654,0.338,9648.0,11730.0,19433.3,29186.9,14709.4,19328.0,23911.3,19795.1,39334.6,37053.5,18479.5,245289.3,82702.7,26001.9,64695.4,83135.2,128901.7,37256.8,25941.0,0.0,19905.4,
655,0.361,47523.6,59950.4,54026.1,41898.7,68319.3,75805.2,67479.6,41644.6,87990.0,16284.0,26817.1,156862.1,36296.0,30588.7,79277.5,107822.1,47841.6,53136.3,32458.0,0.0,20187.4,
656,0.221,14299.7,17587.6,21606.1,18944.6,19670.7,25034.6,25263.6,12957.7,32704.7,16560.7,5769.3,64635.7,29009.1,8211.6,22780.9,42178.0,35842.4,23092.9,14602.4,0.0,26971.5,
657,0.241,14502.4,18990.4,30650.9,27561.3,21004.6,29038.7,29744.4,18434.9,35592.2,26427.0,34580.4,130696.8,45336.4,15150.2,207131.3,142297.0,94500.5,26133.0,20521.9,0.0,38078.0,
658,0.208,10118.5,9860.7,14888.4,13566.4,12232.0,13997.1,14547.4,13799.1,17678.4,10823.9,18714.0,97728.8,24314.2,9775.6,51808.7,74336.0,50786.5,15281.4,10410.8,0.0,15475.9,
659,0.203,18659.6,24780.0,27267.5,27811.5,24646.6,30693.4,30028.6,10024.4,25190.2,29217.5,19324.1,149365.8,36645.0,8703.1,65071.6,96498.1,82149.3,24339.9,28720.0,0.0,26221.8,
660,0.382,23274.2,29276.8,35172.0,35995.3,29625.4,35145.8,37921.1,30784.9,37021.8,23372.6,17927.6,72749.8,34879.7,17811.7,38886.4,29052.1,29640.0,34213.0,35278.1,0.0,35546.3,
661,0.245,15721.6,21633.6,24638.0,21256.1,18677.5,22561.1,22840.4,11201.9,17627.6,26526.0,8202.9,124047.8,28765.6,9312.6,30459.4,63328.4,102804.6,15574.4,13567.3,0.0,39526.8,
662,0.303,8308.6,11654.9,18588.0,16614.3,17508.9,22580.7,22682.0,12043.6,25530.1,28194.2,13651.0,85344.1,25303.7,10243.4,36140.1,45879.2,60424.4,15892.8,14838.6,0.0,25078.5,
663,0.279,7770.0,12320.1,14773.5,23472.1,11964.5,14397.4,15922.6,19103.9,27415.0,24937.0,22309.2,141126.2,62383.3,9064.5,65595.6,93811.2,130921.6,29088.7,24026.0,0.0,24813.2,
664,0.216,22995.2,23196.7,21427.6,25676.4,24765.6,25093.3,25121.4,24403.2,42878.6,63075.8,19986.0,220707.5,108269.3,15640.5,155328.7,104915.0,226830.0,44690.7,33717.1,0.0,33917.0,
665,0.209,13688.4,19790.0,18623.4,14735.3,22091.8,24983.1,22751.0,17394.0,35636.7,56160.8,11707.8,141789.2,80042.6,6345.2,35853.4,68448.0,198840.5,24917.4,18527.1,0.0,12051.6,
666,0.914,17342.7,18971.7,18018.6,19447.4,17116.5,19940.0,17561.3,60167.6,26272.4,42310.1,32316.3,118591.8,59162.9,15524.1,89703.3,141012.9,85149.8,23974.7,30442.0,0.0,37915.1,
667,0.488,11371.5,16860.8,22746.3,24270.8,14760.6,20393.0,22019.2,29560.0,26224.7,16928.8,19771.3,195659.7,43219.5,9419.4,146699.9,92534.7,36103.1,24712.9,19807.3,0.0,18124.3,
668,0.631,33945.9,42945.9,41861.9,38042.8,39173.9,41499.2,39790.9,68179.0,57813.9,35078.9,39363.6,215308.2,70253.0,30343.4,89625.0,65893.5,111035.9,41712.6,32637.3,0.0,28189.5,
669,0.768,20141.7,31187.6,28378.9,16090.2,32869.4,32312.1,29069.5,102912.6,32021.8,29695.8,15584.3,53647.8,15843.6,12839.8,32187.5,56060.3,69976.8,17588.5,7847.4,0.0,28349.4,
670,0.463,30572.5,40134.9,51293.8,57049.2,39013.2,45808.6,56371.0,30544.2,51176.6,38860.8,24545.5,69553.3,44042.8,20570.2,44973.0,53819.1,41339.3,49984.9,49899.0,0.0,44262.1,
671,0.304,23119.4,23419.4,27409.0,30483.3,22946.9,25779.8,28177.0,21685.3,33500.9,34353.9,32370.7,110676.0,61967.9,26643.2,31083.6,57768.5,104618.4,33204.8,29600.2,0.0,35159.9,
672,0.239,19116.4,28213.8,41205.4,38674.3,34272.7,41527.9,43471.7,21118.6,47205.1,42911.0,12714.8,97996.1,48282.0,10913.3,76065.5,100592.9,115535.9,37794.1,39734.4,0.0,39633.7,
673,0.239,12002.1,15733.2,22874.4,21914.1,20911.6,23267.3,24309.9,16568.7,33116.6,26684.5,13594.0,107710.0,37705.8,13471.6,111025.1,40451.6,56456.8,23276.0,24836.3,0.0,24120.4,
674,0.272,11598.9,12605.0,14151.0,12914.5,14208.7,17014.0,16770.4,13523.7,29148.2,17543.3,21905.0,100242.0,34477.4,13822.4,159834.8,57684.7,33395.3,17544.6,17732.2,0.0,31479.0,
675,0.19,2543.6,3587.5,7177.0,10270.1,3942.5,5949.5,7345.7,7799.4,10566.4,16293.8,26641.7,65685.9,16642.2,9316.8,87849.1,76164.6,31658.5,11987.3,13973.5,0.0,14708.0,
676,0.265,8837.6,10279.3,11592.6,11527.7,11790.1,11838.8,13192.1,12086.5,13224.7,14154.5,20890.4,70165.8,22119.1,12500.5,80926.2,45642.5,27001.0,13722.7,13784.0,0.0,31567.4,
677,0.257,14255.3,16090.9,17544.7,17626.7,14475.4,19580.5,15773.3,14462.0,19204.6,21498.3,17621.7,23440.8,22181.8,14110.6,78061.2,22486.1,25407.6,17049.1,21735.0,0.0,29737.9,
678,0.235,20964.0,26071.9,38022.4,34879.7,29075.9,37139.7,43389.4,17352.0,45386.3,51887.4,15694.4,168668.2,72095.3,11810.6,38074.1,116158.6,163993.9,45637.7,33944.4,0.0,28061.5,
679,0.529,9589.2,9914.5,12196.4,8515.5,7991.8,11804.8,12020.5,12469.8,12557.0,40276.2,19536.9,180666.7,55944.0,14576.7,39067.7,81899.8,166240.3,14167.3,17210.8,0.0,31524.5,It's a nice  afterglow. I'm going to follow it down again into the body. Cultivating tranquility and  equanimity in the body.
680,0.507,24826.2,30051.5,29043.6,23625.3,23578.9,22909.2,20591.2,45113.6,18581.0,40739.6,42884.5,128439.2,47018.6,26976.1,99276.2,136673.7,120893.3,18839.2,23693.9,0.0,23901.2,
