Time (s),Var Fp1,F7,Fp1,Fp2,F8,F3,Fz,F4,C3,Cz,P8,P7,Pz,P4,T3,P3,O1,O2,C4,T4,A2,ExG 1,notes
1,0.342,10079.3,13686.0,18312.8,19111.9,13284.6,14665.0,15534.2,12454.9,15703.4,16584.2,13225.1,19029.5,18824.5,8860.8,12915.9,15538.4,16184.5,18510.6,18563.3,0.0,176930564.7,
2,0.541,5342.3,9961.4,12827.6,15716.2,7336.4,9446.0,11464.2,5434.1,9190.1,13912.6,7057.9,10890.1,11438.6,4583.2,6886.4,9381.4,11875.9,9961.5,10989.4,0.0,140394355.9,
3,0.263,5359.8,7439.1,10193.3,11617.5,8544.9,10743.0,11027.8,7744.0,14120.1,20918.5,13061.3,13989.7,13543.7,6430.9,10428.9,16410.5,21980.9,12891.9,23889.8,0.0,122330001.0,
4,0.259,16805.1,17215.5,18752.9,21092.7,18290.9,18741.6,19700.7,15263.4,16805.7,24745.8,11212.3,10363.2,13557.7,14132.6,12310.8,8120.3,12169.4,16409.0,32353.6,0.0,119037940.7,
5,0.588,25999.3,29763.6,22889.7,22088.9,28316.1,25893.5,23907.6,25491.0,27148.8,31380.3,24152.1,32526.8,27099.0,24120.6,25886.2,30706.3,35328.0,26137.2,30578.2,0.0,141368956.0,
6,0.517,11914.3,18639.8,18546.5,15320.7,17794.6,18535.1,21559.8,13087.7,21608.5,22824.0,8447.6,21203.9,22704.2,6985.7,12746.9,13125.9,26567.0,20685.7,26296.9,0.0,746423745.8,
7,4.655,12492.8,118692.1,102926.4,23295.9,19339.0,21402.7,22274.0,8661.0,12303.7,16244.2,10279.2,15043.6,13186.5,9023.7,7641.5,10759.3,16972.3,9371.1,13191.2,0.0,2501966331.4,
8,7.609,29709.9,84975.9,137882.3,82063.8,50694.8,66189.4,85974.0,35890.2,48590.3,33996.8,27875.3,41033.2,46003.3,37851.8,33508.6,33399.8,37033.1,83004.1,54368.5,0.0,6958816658.8,
9,0.979,6878.7,12961.7,20420.3,28978.1,19977.6,12997.8,20037.2,17494.8,13729.6,18208.1,13327.1,12117.4,12492.2,8427.6,12259.4,20172.7,15431.5,29014.3,15390.4,0.0,23014104752.1,
10,4.41,35805.9,39785.1,69208.2,80800.9,45289.3,48009.3,55806.1,44331.1,48697.7,60588.3,41469.1,58884.9,57273.3,40046.1,48391.4,52022.3,58090.9,42343.4,58102.0,0.0,123701719857.1,
11,4.612,18427.0,40137.9,48077.0,31492.1,18555.0,21631.5,26539.1,15589.5,16642.2,12364.9,12355.1,19522.6,16192.9,12465.5,13863.4,14635.9,17092.0,18721.4,12475.0,0.0,383623251.6,
12,2.764,21652.2,88197.2,48179.7,16868.8,34693.6,26242.1,22867.5,26673.3,19927.9,8093.1,8863.4,14924.3,12440.8,6089.1,16577.4,13910.9,12399.2,17766.8,15486.8,0.0,1425187578.1,
13,3.954,11428.2,78652.7,44633.6,19686.1,19782.0,19298.0,14837.8,15580.3,9204.9,16963.1,8985.5,13510.6,11305.8,5692.3,14191.6,12735.6,13435.8,11394.1,19693.4,0.0,115440502.5,
14,8.224,21110.1,214486.9,164867.3,44407.9,43237.1,46697.8,39891.9,19456.4,23484.1,23123.3,17958.4,27737.5,21672.8,13237.2,21726.6,28017.1,25216.4,24016.5,28915.8,0.0,287641981.9,
15,0.457,9563.9,10854.0,12084.1,24570.6,9133.9,9754.7,11706.3,9915.6,11312.5,19125.0,12911.8,11833.3,12145.9,10370.3,12917.9,19868.9,17128.2,19631.5,25353.3,0.0,1124253852.5,
16,0.197,7945.2,12453.4,15771.5,16288.3,13373.2,16070.0,16854.4,19998.2,14006.9,12305.7,16300.1,15166.1,12128.5,8433.3,17114.7,14559.1,12144.2,19474.5,13761.0,0.0,563402824.1,
17,0.333,17398.4,19222.5,23308.6,26693.2,26116.6,25709.0,30485.4,20989.4,27371.8,27701.5,21811.0,28980.0,29742.5,20258.5,20985.1,26003.6,28020.0,31177.3,27371.9,0.0,8782537.5,
18,0.4,23955.5,26784.8,33899.8,39731.6,33003.1,29315.3,34488.9,25076.7,27367.1,19039.5,31491.0,34143.3,30632.8,21233.1,25459.8,34743.2,28090.9,32431.1,26953.8,0.0,907057972.6,
19,0.734,26722.8,36254.2,36974.2,38830.4,39854.0,40715.2,40613.1,38741.8,42948.5,45575.6,26047.3,46516.9,46688.7,26304.8,36563.8,31072.5,42636.2,45143.5,39981.0,0.0,10167275.8,
20,1.158,11200.6,42950.4,33723.5,17107.8,18598.2,18794.5,17301.1,13853.2,17917.7,19129.7,13059.7,23037.0,21535.1,11912.3,17798.8,19580.7,22639.8,19240.2,15545.8,0.0,37305861.0,
21,0.405,9217.6,11289.6,13155.5,11601.3,9000.9,10972.3,11589.1,9800.3,19413.6,12436.8,7744.5,13055.0,12463.4,7648.7,8587.6,7987.2,11663.9,12426.2,11014.7,0.0,4400540.1,
22,0.38,13075.4,15840.7,16609.4,21514.4,14511.5,16119.2,15694.3,14313.1,12721.3,21524.0,13327.1,13799.0,18638.4,10744.2,10042.2,13095.2,20487.3,16674.4,18649.6,0.0,623045.3,
23,0.178,4317.1,6143.4,10056.7,11957.6,6493.1,8398.6,9850.1,4982.2,10086.3,14969.8,3715.7,10384.0,11599.5,3805.7,5652.4,7374.3,18869.5,14942.3,10420.7,0.0,518165.3,
24,0.194,10420.7,12182.3,11796.2,13436.1,11185.7,10910.7,11692.6,7884.3,10247.6,15354.7,10669.7,14315.2,11422.9,8107.2,10624.4,16045.6,11577.8,12834.6,14291.7,0.0,556282.3,
25,0.398,14061.1,14982.0,15728.2,16642.9,15057.9,15462.3,13690.5,12445.8,14216.9,19754.2,6857.0,12452.7,13495.3,10738.1,8708.1,5646.4,8912.0,15286.7,16678.9,0.0,522219.0,
26,0.185,5974.5,6260.7,8455.2,10086.2,6168.1,7211.6,8720.6,8824.5,9951.0,12127.8,9542.5,14628.9,12251.6,6488.9,9701.7,11594.0,13085.7,12073.9,11739.6,0.0,501289.8,
27,0.256,12682.3,19556.0,20839.9,21615.9,20901.3,23088.7,24726.7,15697.0,29011.0,16704.2,11096.4,24936.1,22605.7,11566.1,16990.7,18142.2,20883.9,20645.7,17000.5,0.0,500157.1,
28,0.431,21129.6,19782.2,17655.8,18171.2,24761.5,22629.9,19990.1,21248.6,22475.8,23959.3,14500.5,13585.8,20807.0,18702.0,17160.6,11541.2,17310.7,22572.8,22014.5,0.0,576654.6,
29,0.324,18147.2,22498.8,22270.0,24109.3,19381.5,19865.7,19956.7,15561.9,19096.7,26582.1,16814.6,14476.8,19167.0,14418.4,13936.3,15632.4,18237.7,19034.2,20794.8,0.0,632439.8,
30,0.353,21406.6,22398.1,21072.5,17408.4,25234.2,26234.9,25035.4,23297.6,28728.4,18434.7,16209.1,21856.6,20051.2,13860.3,20562.5,17882.4,16644.4,23301.0,15009.9,0.0,627088.8,
31,0.643,24011.7,30504.0,33833.4,37210.6,33881.8,36281.1,37847.9,27454.8,36468.5,30242.7,22139.7,42743.1,35576.1,18528.9,28706.8,44284.7,27365.3,36089.7,35877.6,0.0,821243.6,
32,0.634,16630.9,26221.3,34084.0,30590.3,24770.9,29577.0,33990.0,19275.2,31591.1,25576.4,18038.5,41516.9,29544.2,13224.8,21488.9,35676.2,32043.6,30296.7,25982.6,0.0,844331.2,
33,0.181,7242.2,10364.7,12306.0,14649.2,10812.0,13611.6,14009.5,10130.8,16148.6,20551.5,7277.6,14815.4,16178.8,8066.3,9777.1,8159.5,15927.0,15878.4,19963.5,0.0,798857.8,
34,0.281,9599.5,9771.5,12008.4,13318.9,12285.3,13492.1,14284.6,17468.7,17098.1,18013.5,22218.5,47798.0,24951.3,11456.3,35578.6,42785.1,30145.0,16209.1,15209.3,0.0,643532.4,
35,0.228,5214.0,6462.1,4433.3,4537.7,5839.8,4463.6,3415.2,3151.5,3681.0,8362.9,4746.5,7130.7,7011.6,2684.6,3679.1,7093.4,12998.4,3987.5,8414.0,0.0,741024.9,looking at the flame
36,0.319,13096.9,12663.1,14802.2,15820.1,13775.6,13278.7,14026.7,15088.3,17358.9,17570.4,15472.8,19486.3,15159.5,14670.5,18659.9,20774.9,16231.6,16616.1,14639.1,0.0,716040.2,
37,0.259,5401.1,9648.3,14636.4,27762.6,9821.8,13520.4,16998.8,6407.5,12377.0,32988.2,8095.2,16832.0,29450.1,5200.1,7527.2,12320.3,20118.5,24883.3,42722.8,0.0,661725.4,
38,0.231,6346.3,7406.3,7664.1,7819.7,10126.6,11034.0,9750.6,8277.7,9297.9,9158.8,10441.7,6810.7,8423.0,9403.9,7792.2,9884.5,10416.7,8640.2,8836.9,0.0,530773.3,
39,0.245,11283.3,14716.4,15490.0,16229.8,14749.3,17662.8,16803.4,12703.1,16654.1,14479.7,12707.0,18019.1,19887.0,12807.7,18004.0,21340.1,13283.1,18166.5,17345.4,0.0,623175.3,
40,0.187,8384.1,8251.9,9649.5,9073.7,10784.9,10914.4,11143.5,9674.7,13253.8,12355.2,9525.3,13769.7,15112.7,6690.5,8456.8,12720.6,18549.5,11885.4,10094.2,0.0,656785.8,
41,0.257,13365.3,16047.3,20672.6,19866.6,21678.1,23276.5,23272.2,14803.3,24531.5,18004.5,17733.4,29440.8,25033.7,13080.1,17348.4,18465.0,20285.9,22895.3,17533.6,0.0,747387.3,
42,0.277,8458.5,12917.2,14874.6,16276.4,13251.5,14998.7,18905.9,11644.1,17794.2,20659.1,9441.1,26230.3,29518.9,7512.2,13470.6,16561.1,24198.5,19140.6,23125.2,0.0,736477.3,
43,0.211,14135.3,15351.7,14375.4,9111.9,20355.2,20767.6,15861.5,25299.0,23803.2,12697.0,33754.1,28802.2,18761.1,29817.0,34570.6,35746.4,20702.4,15205.6,12064.5,0.0,617407.6,
44,0.2,9478.5,13927.6,16499.7,28653.3,16331.6,18242.7,20330.2,16376.3,20287.0,44591.5,13922.6,32021.1,34836.2,12096.8,16407.2,15685.2,25199.6,30114.4,45740.5,0.0,718973.7,
45,0.253,22956.9,20546.9,15638.2,13508.5,23413.8,20655.6,17305.6,28665.4,23793.0,20646.4,26048.5,28756.5,16216.6,26660.7,31629.4,37186.0,18653.6,15518.9,29026.8,0.0,613289.6,
46,0.207,6490.4,8503.3,12654.0,17129.1,6820.0,10588.9,12843.6,10513.2,10119.0,23004.0,12826.9,24640.6,23550.8,8071.3,21076.0,22181.7,21811.6,16853.2,29215.7,0.0,653389.0,
47,0.208,17388.2,24946.5,24195.2,27847.0,26318.5,32176.4,28681.3,26217.7,38503.8,32824.5,16302.1,55308.4,36210.1,14693.7,33667.0,27630.8,38961.7,31157.6,30746.9,0.0,676287.3,
48,0.244,11146.7,15344.4,17982.3,25779.4,17832.8,19952.3,20396.6,20085.0,25795.3,68312.9,21340.1,43957.0,64602.4,15416.7,28517.1,35035.5,74024.5,34381.2,48894.2,0.0,788638.2,
49,0.208,5892.5,10564.1,15139.7,20617.6,12350.7,16306.9,21570.6,13199.5,21019.8,65327.1,22351.3,44734.1,46869.5,11566.1,34535.0,51348.7,44350.0,31333.8,43179.5,0.0,637570.0,
50,0.351,17262.4,19442.8,24741.5,24172.2,18952.7,26018.2,25411.2,19371.0,29051.7,23695.6,24243.6,140130.3,51089.9,17606.5,48298.6,72052.2,49212.4,22062.4,25258.7,0.0,835419.9,
51,0.271,17225.5,22620.0,20750.7,11198.8,20823.1,20743.7,15426.6,19392.2,15345.3,37112.4,33904.5,224070.1,91543.5,19945.5,59274.6,65934.6,70565.2,17445.7,17853.8,0.0,597750.1,
52,0.209,14187.8,27774.2,28360.5,19341.8,22585.3,28013.4,25417.4,13850.1,22615.9,21269.2,12630.4,58399.0,34049.4,13249.7,10638.8,17072.7,33811.1,18705.8,16592.7,0.0,710766.9,
53,0.195,22962.4,16469.7,13481.2,9673.4,20110.8,18419.7,13458.0,21604.3,15918.3,11139.8,18862.9,27095.2,14166.9,27605.2,20079.6,25693.8,18183.6,8734.6,19668.1,0.0,792746.8,
54,0.198,10562.2,12781.1,17329.1,24953.9,14123.6,15599.9,16772.7,11854.6,13578.0,51702.8,21972.4,28742.2,45586.0,13401.9,27359.5,38765.4,48905.0,26382.1,49242.5,0.0,872988.3,
55,0.186,9992.8,12155.7,13947.6,22188.4,13290.6,15266.0,15917.3,15277.4,23154.6,30241.1,13738.1,25253.6,29314.1,12641.7,15703.0,17004.8,19182.0,26522.7,37578.1,0.0,726689.1,
56,0.197,22877.5,30736.7,31056.5,24762.2,32480.3,34274.6,30552.6,23715.2,38576.7,25021.5,21823.6,27779.8,27487.2,22000.7,19685.8,27568.9,26519.9,21550.6,25681.8,0.0,648213.8,
57,0.316,14941.2,20079.9,18692.4,21699.1,19429.3,19890.0,17942.1,17252.8,19833.4,35570.2,9060.6,60280.6,50288.3,10452.2,23706.3,32077.8,65863.6,22105.3,25604.6,0.0,693652.4,
58,0.206,5844.4,7533.0,9325.4,9359.5,12176.6,12738.5,11690.8,8833.0,14963.5,34825.5,13745.5,53577.8,47520.4,8028.3,24541.8,38285.6,55551.2,17075.8,24244.2,0.0,798260.4,
59,0.17,13121.4,16663.8,16112.4,15113.6,19959.1,21615.5,19543.0,17060.3,24026.2,19115.7,8385.4,27993.1,26549.7,9419.2,12485.7,19224.5,21185.2,21493.1,21470.0,0.0,669439.4,
60,0.198,7690.4,8198.3,10113.3,18944.4,7627.6,9391.1,11015.2,9283.9,10632.0,53706.6,10352.9,37085.6,51862.5,7936.1,15109.5,20517.4,65580.0,23797.1,40071.0,0.0,725803.4,
61,0.237,13785.6,18012.3,18631.5,17419.2,21270.9,20741.1,20461.6,14954.1,21606.7,12192.1,10646.5,29672.2,16319.5,10155.3,15547.6,22965.8,19828.2,15649.5,11874.6,0.0,638694.6,
62,0.179,10013.5,18468.2,23613.3,18034.6,16446.4,23476.8,23222.0,11099.4,25802.5,16996.1,11127.6,111832.3,44340.5,6722.3,31548.4,56378.7,58565.9,22663.9,13765.1,0.0,685563.5,
63,0.252,6718.3,6851.0,6989.4,5482.4,9810.4,9303.5,7256.6,8135.8,10085.7,6101.4,3212.3,10087.8,8178.9,3576.4,5897.9,6303.2,8498.0,5286.2,5034.6,0.0,709111.4,
64,0.279,12479.8,19120.2,23681.4,21580.0,22065.8,26453.0,25017.4,19199.6,26212.1,18081.3,10494.9,22652.9,22608.6,10394.3,18066.4,13913.0,17425.5,25366.5,21497.8,0.0,864898.7,
65,0.241,8849.5,10573.8,13567.7,13268.7,10914.5,11999.2,14593.0,10487.9,12814.7,14327.7,8325.7,12870.5,13446.5,6223.9,10264.7,9354.0,10241.2,15345.9,17343.0,0.0,1093771.6,
66,0.294,16742.7,23028.4,23976.6,21721.4,17581.7,18745.4,18674.4,15294.5,16800.1,16222.3,11106.1,15841.9,15767.7,11235.1,11715.2,11724.8,15802.8,15936.8,16908.5,0.0,896503.0,Seeing some streaming in the air already around the candle-  I finally see purple and red. 
67,0.459,9954.3,11981.7,10945.2,11127.1,12736.9,15196.8,13410.9,14391.6,16396.2,9485.9,16344.4,21250.4,14816.6,13354.4,18806.4,17894.7,12711.4,12067.6,11944.3,0.0,739161.9,
68,0.485,20452.3,30784.1,31786.7,30835.0,24951.6,27673.3,30562.3,20858.1,22883.0,19571.9,17392.0,19066.1,20765.5,18253.6,18332.8,17581.1,19447.4,25509.6,24605.2,0.0,648639.1,
69,0.408,7398.1,8510.3,10311.3,13261.4,7034.1,8002.1,9191.3,6266.0,8707.2,16717.9,6478.2,9884.2,16480.1,6742.1,7365.7,7204.5,16943.5,10448.1,15557.9,0.0,568937.1,
70,0.207,14189.9,12784.1,9588.2,11168.7,13909.9,13303.8,11745.2,13567.3,15272.9,15348.5,10760.6,13451.8,16970.9,10930.1,12900.6,9661.0,12508.5,13844.2,16364.0,0.0,772000.4,
71,0.251,12931.7,11955.6,9427.7,9625.9,11837.6,11388.1,8962.9,9981.8,11213.8,10078.0,6326.6,11943.6,9927.0,9242.7,8799.5,6935.5,11005.5,9395.4,8542.9,0.0,755227.1,
72,0.218,9538.4,11473.9,11693.5,12681.6,11010.2,13253.3,12210.5,8929.1,12204.1,14906.6,8572.7,10485.0,15209.4,11133.8,8446.9,9817.0,14926.9,12448.4,14775.3,0.0,786846.7,
73,0.234,11878.1,11631.9,9929.0,8322.1,11653.9,12491.7,9999.1,10629.1,9570.1,13399.6,12182.6,10772.4,11200.0,13415.8,11015.2,13691.2,16054.3,8713.3,10451.1,0.0,763019.9,
74,0.185,19546.1,21179.3,25237.6,32800.2,21465.4,23671.0,26171.8,23368.9,26745.6,26742.3,14268.6,29521.4,23928.0,16664.9,21670.0,18431.4,24896.9,23905.6,27997.4,0.0,770121.9,
75,0.19,14119.6,17329.4,19534.3,22105.2,17700.2,16750.1,17349.7,14449.7,14597.1,18363.4,14517.7,11232.7,12944.4,11046.6,13551.9,11174.3,10444.3,15709.2,23771.2,0.0,715733.1,
76,0.175,6504.9,9018.5,10445.8,16652.8,10002.1,11959.7,11959.0,9951.0,11597.4,16889.5,7132.0,11398.9,12499.6,7900.9,9869.9,6666.8,13972.5,9798.8,16134.5,0.0,781184.5,
77,0.229,11509.8,11418.2,12020.5,9078.8,12426.2,12168.1,11918.3,12706.4,13662.9,6039.2,7453.7,9643.9,6625.2,8470.9,11058.6,6343.9,6061.2,8679.7,8319.8,0.0,907207.1,
78,0.25,7018.8,7497.3,8087.7,8116.4,8616.6,9943.9,9088.9,6579.6,8621.9,7773.2,5528.5,9321.7,8210.8,5901.5,7085.2,4997.0,8002.2,7688.4,7105.5,0.0,633522.5,
79,0.272,11897.1,11712.0,11352.9,11059.5,12057.5,13259.9,13536.8,13480.9,17293.7,10880.0,9977.2,20622.9,14633.6,11106.4,14442.3,13191.9,15952.7,13949.3,9735.1,0.0,781107.1,
80,0.296,14122.1,13479.4,10554.1,12947.5,11428.8,12470.6,11944.8,12768.9,13810.1,10616.5,12226.3,14916.7,11773.4,12137.4,13659.5,16316.8,12011.5,13631.5,11096.6,0.0,778321.7,
81,0.263,12510.7,12064.1,11578.2,13290.7,11598.3,10799.6,11237.1,12711.9,12908.0,15889.1,10283.2,16606.4,14051.0,9462.8,12979.6,17398.9,13875.8,13695.3,14178.6,0.0,774541.0,
82,0.335,5254.9,8827.2,9086.4,8393.4,10516.8,11848.5,10483.4,8418.7,11208.1,7167.1,6288.9,9091.3,7113.4,5808.3,7281.4,7060.9,9173.2,8093.5,6283.6,0.0,677040.7,swirling around the candle. Closing my eyes.
83,0.312,18303.4,22820.3,28181.8,26839.9,20160.6,21309.1,23174.5,17197.4,20191.9,22910.9,14092.1,18644.9,24987.0,13426.6,15465.1,18192.4,21608.3,24667.1,27288.5,0.0,790998.2,
84,0.549,12462.8,13237.0,17825.8,18104.0,14415.3,16024.7,18573.6,13554.3,16056.0,14496.4,12663.2,16263.4,17865.7,12400.1,16714.5,16896.4,15787.7,18622.4,17391.1,0.0,927735.6,
85,0.21,8939.0,9513.2,10718.8,13111.5,10478.3,8318.4,10335.1,11106.7,10488.0,12290.6,16747.0,12408.5,12241.7,11853.4,14361.4,17062.0,8600.4,11968.7,15130.0,0.0,679773.0,
86,0.289,9372.8,8565.9,9332.5,10245.6,8756.5,9349.5,9556.5,8085.5,9865.4,7765.3,8096.7,10251.4,9447.7,8610.8,8993.3,7707.6,7557.1,10473.8,8103.8,0.0,745149.8,
87,0.204,8430.7,11241.9,14811.1,16170.8,12887.6,15353.0,16638.5,9946.4,16313.2,13848.0,8036.2,12870.7,19471.4,7373.1,8210.5,9388.6,12429.3,18536.6,18272.8,0.0,766919.8,
88,0.171,11939.7,12679.2,13657.9,15149.7,12416.6,14364.8,16139.3,14715.2,18564.9,11176.4,10549.4,20677.6,13664.3,12124.6,12228.4,11835.0,14475.1,14485.4,10848.3,0.0,844541.9,
89,0.307,5272.1,8258.8,9358.8,10571.3,8818.1,10048.3,10226.3,9550.0,12649.6,7619.7,6225.3,11759.0,8638.1,3486.5,10644.8,8374.0,7037.9,10482.1,8315.7,0.0,616763.8,
90,0.199,10770.1,10430.2,11174.8,16633.7,12032.7,12447.2,12247.4,9284.0,10304.7,16304.2,8776.5,10237.4,14178.6,11631.8,7903.4,9611.9,13258.0,13515.8,21037.9,0.0,716563.4,
91,0.215,11121.7,14534.2,16458.5,15373.0,18478.3,20424.1,20482.8,15288.8,22662.0,12039.4,13964.2,23660.1,17274.8,15641.0,14566.1,13850.5,17311.9,16669.8,16933.4,0.0,996053.1,
92,0.219,10446.9,11104.3,11483.7,12303.8,13240.8,14822.7,13108.7,12269.9,16090.8,16448.6,11154.2,26372.5,17061.9,9643.8,18578.0,34514.5,18755.5,13670.8,17212.5,0.0,784711.0,
93,0.197,11101.9,12677.4,15871.6,15110.5,14613.1,15863.4,15970.6,15714.2,19530.7,15365.7,12853.4,18366.1,21503.2,12631.5,16966.3,13281.3,17886.2,17861.2,17616.2,0.0,693380.5,
94,0.238,5782.2,7140.7,9975.6,9424.9,9576.8,12065.5,12237.4,7071.7,11204.0,6943.0,6566.9,6165.8,9550.2,6504.8,6602.2,5254.0,7621.5,10138.7,10432.4,0.0,570247.1,
95,0.178,4741.8,5192.8,6571.4,7368.3,3751.9,4914.2,6371.8,4542.2,8172.8,11469.8,4921.2,8989.6,12477.0,4480.0,5907.7,7232.0,13720.1,7690.2,8282.5,0.0,673129.6,
96,0.167,6272.6,9861.1,10163.3,10172.7,10138.7,13412.6,11397.5,12508.1,17103.9,13510.6,12225.6,17351.7,15811.9,8432.5,15710.1,17208.5,12575.5,13305.3,14561.7,0.0,767068.4,
97,0.263,15052.9,16553.0,20986.4,19855.5,16403.6,19223.8,19330.6,12340.4,13698.3,21061.4,8524.7,17768.9,27531.0,11805.8,7774.3,10121.0,18905.6,19958.6,23585.4,0.0,785640.3,
98,0.384,17194.1,19052.8,27260.4,36485.6,19872.4,23048.8,28319.1,23066.3,31584.1,38429.8,24978.2,33139.6,35060.5,20400.7,29049.7,24869.3,31706.7,34728.5,42945.0,0.0,695532.7,
99,0.216,14036.8,15787.3,19942.2,23258.0,20084.5,20396.5,22217.5,18540.4,26755.4,28065.0,25210.6,21965.8,23489.7,17308.6,20637.4,25638.6,25305.8,25579.1,32171.0,0.0,753595.2,
100,0.252,23543.5,28041.2,30085.3,40197.2,33184.0,34593.7,37139.0,29604.4,34281.9,51070.6,25002.2,39749.7,46957.2,21348.1,30504.0,35762.7,46568.1,42911.9,48733.0,0.0,625355.6,
101,0.203,10032.7,10511.4,15712.2,19153.3,10430.7,14553.5,16860.9,8980.5,14639.3,21781.5,15525.3,19601.8,17541.2,11316.0,14985.8,23886.0,22271.6,16395.8,22837.8,0.0,555823.4,
102,0.184,9012.3,12768.2,14705.7,11836.2,13887.7,17772.6,15420.4,9507.9,20116.7,12700.7,9453.0,12357.5,14018.1,7260.5,10019.8,12928.4,13277.7,12801.1,10822.1,0.0,668477.1,
103,0.182,4669.7,7483.3,8788.2,8160.8,9517.4,9418.2,8849.8,9870.9,12066.2,10736.3,9002.5,13558.5,13863.9,6461.7,10643.3,7161.0,10986.6,10234.4,11809.8,0.0,690645.8,
104,0.367,16875.2,21232.3,19068.3,19126.9,15748.9,15564.5,16151.2,11803.1,14201.7,18270.5,14262.3,13229.9,16578.0,13576.1,13355.7,16692.9,16319.3,16341.0,20686.4,0.0,682262.0,
105,28.133,20265.6,93987.9,79708.8,21699.8,25564.7,21400.5,18441.2,12679.7,15962.9,12652.1,10735.0,20509.0,13940.7,10227.6,14667.7,14759.0,15262.9,13949.3,17353.4,0.0,824623.0,
106,0.647,9993.8,11838.4,19183.8,14673.8,11360.4,12649.0,12633.7,13832.3,13344.7,11817.2,13781.0,13498.5,11664.1,11070.8,14302.7,15119.9,12543.3,12130.4,13160.8,0.0,892763.3,
107,0.245,9544.2,5639.2,12064.4,10506.5,6387.5,10368.6,10832.9,7495.0,8382.2,5048.4,11883.0,8485.2,6456.4,16492.4,6865.7,11215.7,8701.5,9233.4,6603.4,0.0,700719.0,
108,0.718,26204.7,28100.4,32161.8,31644.2,32274.3,33325.0,35212.9,30582.6,37415.2,29253.0,22077.0,26609.3,30880.3,24140.2,25286.9,23935.3,28589.0,33756.1,28657.3,0.0,665047.9,
109,0.269,7872.4,9522.5,13922.9,11839.9,6489.3,9811.5,8883.1,7294.2,6930.2,11297.6,16807.2,12470.7,8310.0,10859.5,15673.3,32464.2,12635.0,6398.9,10437.5,0.0,694672.5,
110,0.214,12739.8,9775.6,9930.0,12111.5,10491.8,11048.9,11029.2,12828.5,13437.2,8353.4,16850.3,18106.3,12130.1,14571.4,18931.8,22408.9,11180.9,11684.4,8909.4,0.0,699660.1,
111,0.309,10664.0,12195.3,10949.1,10623.8,12947.9,16814.7,14585.2,13423.1,21670.6,17236.8,14209.4,26980.8,17032.0,13240.4,19585.9,21172.0,22674.1,12037.8,14785.3,0.0,774987.9,
112,0.236,16635.5,17820.3,16902.6,20734.0,23002.2,24269.4,25283.9,27204.3,36352.5,22839.3,24642.7,28865.1,25807.4,23899.6,28526.7,25932.7,23879.8,27882.9,23107.0,0.0,855471.4,
113,0.254,9878.7,11914.9,12109.6,11984.0,12599.1,12643.8,14208.5,10320.2,12190.7,11121.5,11736.6,24141.3,13526.4,8528.1,18355.9,30810.8,12971.3,13511.9,13606.9,0.0,659086.2,
114,0.234,8768.8,11626.6,10619.3,8175.3,9474.7,12078.7,9890.3,7436.0,12471.9,9544.1,6510.1,11012.4,10089.5,7624.1,8136.0,8801.9,8571.7,9188.7,11729.1,0.0,660344.0,
115,0.36,17285.7,21539.3,14056.1,10824.0,22030.3,21704.4,19126.4,16515.8,25019.9,15183.5,22168.7,68270.9,27073.6,13119.4,35876.0,76154.3,54921.5,15309.9,14121.9,0.0,673062.4,
116,0.291,8739.7,8388.8,8762.5,12186.8,10954.8,8240.5,9294.0,9049.1,12632.8,17852.4,9641.0,96110.4,28475.3,7655.3,17634.5,52495.6,45310.2,11228.9,14392.5,0.0,788939.3,
117,0.352,20071.6,21583.2,23455.2,26972.5,23836.1,26245.1,23191.1,27071.4,29952.7,30990.6,32528.9,55143.0,34288.8,26301.2,41585.7,70346.4,40759.9,26836.1,35132.7,0.0,764390.1,
118,0.192,8882.3,10509.6,13953.6,13657.7,11412.8,12286.6,14107.8,10945.1,14227.5,19852.9,10979.1,32538.9,23113.1,8230.9,17496.2,26896.3,36672.2,15615.8,16629.9,0.0,727979.8,
119,0.251,15239.7,13809.3,18026.0,16779.1,14009.9,17337.5,17542.2,18396.0,23869.4,12938.0,19467.6,50157.5,20618.2,16056.6,28059.6,42889.5,24067.9,16632.9,13126.8,0.0,863752.7,
120,0.353,12923.5,17974.4,17105.9,10448.7,20688.2,24652.4,20841.9,17577.5,32180.1,30092.1,22882.5,123564.5,59808.0,9436.9,44228.1,72953.9,94024.6,23377.1,15268.9,0.0,921881.6,Red dot against a bunch of negative background images.
121,0.693,14283.1,21634.7,24903.0,19055.0,19080.1,18756.1,17445.5,14468.3,18192.5,21140.7,13582.8,22620.3,21631.6,11924.6,15185.6,18824.8,24457.1,14213.8,15417.9,0.0,1228918.2,
122,0.294,6736.1,8521.7,12209.1,11296.4,11045.8,11900.0,12026.2,8296.3,12163.4,11617.6,4812.2,9631.3,11478.3,5083.4,6877.9,6022.5,9913.0,10807.6,10066.4,0.0,1026014.6,
123,0.31,10120.8,10648.6,13783.7,13087.4,13163.9,12847.7,12596.6,13327.7,16477.5,11774.1,7876.7,13760.3,13649.3,8860.0,13609.4,12027.1,11292.6,14952.1,16732.6,0.0,1014285.8,
124,0.315,14991.9,15182.1,15743.5,16807.7,16994.1,17160.1,15999.6,15872.0,14751.2,18187.9,15693.4,16754.8,13790.3,15011.0,16041.1,20181.3,16477.0,15508.7,19139.6,0.0,946460.4,
125,0.212,6840.1,9824.3,12168.9,10502.3,10022.3,10872.7,11611.3,11386.8,12835.7,6043.0,9539.2,15380.5,9664.8,11505.7,17339.5,12795.1,6860.1,10288.2,7558.3,0.0,1040848.9,
126,0.246,13989.1,15787.9,16259.0,15982.0,17324.0,19941.9,18265.2,14014.4,20751.3,14824.4,12062.9,18711.3,17294.2,12820.2,15084.6,15544.6,18140.2,16882.2,18709.5,0.0,944422.2,
127,0.234,4529.3,6476.0,9558.7,9446.7,7880.1,9821.6,10319.1,7761.7,18686.3,16957.8,7792.0,25433.1,18458.4,7481.5,11481.2,9255.0,15166.9,14301.7,18158.9,0.0,933895.6,
128,0.383,12503.1,13456.8,15635.7,16293.0,11201.4,13205.9,14241.6,10712.7,8060.6,17999.1,12998.8,18245.4,10533.5,11608.2,15640.9,21199.7,12968.6,12075.7,19561.9,0.0,1003915.2,
129,0.239,20531.1,18730.2,19257.6,13183.4,22937.3,25059.8,21732.9,23476.5,37222.9,13050.6,21937.8,86084.6,30249.7,22065.5,36836.7,46065.9,21459.9,23284.7,14408.5,0.0,1027858.6,
130,0.213,14438.3,17604.1,15323.1,15484.2,17226.0,17719.9,17646.2,21086.2,28253.0,18172.9,21482.8,74032.1,32607.5,15468.1,34938.1,53122.1,34411.4,21158.3,15519.1,0.0,1093208.6,
131,0.192,8566.7,11436.6,11951.5,10309.5,12687.1,13676.2,12398.6,16603.9,21647.8,11970.9,16316.7,84201.2,28304.4,8911.0,30440.7,50669.4,28086.7,16517.0,11345.8,0.0,1076088.5,
132,0.26,12845.3,12127.5,15039.8,17094.2,16734.8,17058.8,15461.1,18951.0,20990.2,20508.4,21638.4,59968.8,24687.5,13874.6,32790.8,44584.0,26106.3,18312.7,19204.5,0.0,838602.8,
133,0.189,6519.8,7436.8,9230.9,10621.2,5909.3,7632.1,8689.5,4565.9,9356.7,15547.7,4390.6,14230.7,15424.6,4397.0,6692.3,7454.6,22401.1,10233.7,15672.1,0.0,903767.3,
134,0.195,6166.9,8758.9,11476.0,11065.1,8598.1,10329.3,11982.3,12033.3,18714.7,25395.3,17576.0,80076.6,33685.7,8650.3,25530.7,48391.5,49753.3,17932.7,20808.9,0.0,954490.4,
135,0.5,17454.4,20880.4,21894.7,19831.0,23323.7,27762.7,26920.4,21018.0,32264.5,17020.6,10047.1,84200.9,30025.4,11624.1,20385.4,27835.7,22535.0,24474.7,19391.3,0.0,931568.7,
136,0.208,8827.5,13778.2,17818.6,16501.0,13110.0,14854.0,16199.7,8655.1,15870.3,19200.4,8188.1,31989.1,22177.0,6585.5,5889.4,10671.1,17466.5,17260.6,17931.6,0.0,909537.4,
137,0.196,10824.4,10252.0,13135.8,11578.9,11522.5,12642.3,14436.2,9618.4,13900.0,15726.5,14030.3,19369.3,17562.2,13159.8,12505.0,17456.5,17214.6,14201.5,12123.9,0.0,894537.7,
138,0.177,10284.8,9651.3,9547.9,10669.9,10482.7,9657.6,9223.1,11842.9,9765.8,8136.0,13267.3,9692.4,7948.1,14859.3,13516.0,14722.3,8167.1,6877.6,6939.1,0.0,971880.8,
139,0.3,13281.4,16757.7,17709.6,15802.3,17521.0,17591.0,16901.0,17981.2,19801.9,15802.4,12998.0,14344.1,13865.0,13250.0,16772.9,14670.8,13966.5,14297.7,14755.9,0.0,902498.0,
140,0.193,11004.3,9389.5,7903.9,8341.1,11487.4,9953.1,8372.0,11292.0,15023.1,8783.8,7742.7,11914.1,10644.1,8204.3,10622.4,9416.5,8008.8,9296.8,10703.3,0.0,1104878.5,
141,0.364,14185.8,18726.8,25537.4,21736.8,17358.3,19722.6,21538.9,13842.4,15717.8,11026.8,10155.9,13458.7,12170.5,9716.2,10415.6,12668.6,11583.9,15350.3,14529.4,0.0,963193.2,
142,0.3,7486.3,12749.2,20698.8,17910.6,12908.4,17662.4,19957.2,12535.3,21149.3,21756.5,9222.9,28897.5,27620.2,7659.3,15234.3,14391.3,34145.2,22962.4,19930.1,0.0,1045733.1,Background images fading dot with a lot of yellow in the center and purple around it. 
143,0.355,10908.5,13378.4,12783.4,14045.6,14241.9,12751.7,12479.2,12743.7,18328.7,17709.5,8748.3,53888.8,27880.9,10569.9,17043.9,19310.2,30131.9,15701.6,15870.9,0.0,1187429.6,
144,0.415,4706.0,5786.0,6515.3,7624.8,5754.6,6722.4,6822.0,7149.4,9545.0,9011.2,8938.7,25581.9,12339.8,5556.2,13590.9,17380.3,14217.3,7308.6,8510.5,0.0,1030131.0,
145,0.387,8773.6,10152.7,15313.4,17989.2,9219.0,12459.9,13844.4,8897.4,15837.5,22343.0,24931.9,115803.7,37363.0,9423.1,35693.7,119141.4,91971.9,18850.2,15919.5,0.0,1063651.5,
146,0.353,10063.3,14761.7,14547.2,16622.4,15172.5,15598.4,15937.4,17551.9,18200.4,12335.2,9321.5,53304.6,19620.6,7394.4,21467.4,31906.8,19942.9,17170.7,13683.2,0.0,1038394.6,
147,0.235,5233.2,6640.7,5471.8,4150.1,5967.4,6195.7,5591.7,5411.0,7859.0,4644.0,6961.8,31748.4,11664.8,5515.7,6503.3,9144.4,14595.6,6035.7,4299.7,0.0,1060646.2,
148,0.229,16077.5,19113.7,19008.0,13003.2,22368.8,23926.0,18263.1,17183.8,21124.4,12360.5,18114.4,24169.1,15748.8,15735.2,21664.3,26706.7,18755.7,15294.6,13366.6,0.0,988379.4,
149,0.307,19300.0,24171.0,24717.6,27831.2,25496.9,25325.8,26496.2,26927.3,30227.6,34151.5,24545.3,39206.6,32476.4,20273.8,28922.9,33669.0,39555.0,25430.5,35390.3,0.0,1014692.9,
150,0.238,5401.7,10279.9,11286.5,13219.1,11952.3,15377.3,12644.6,11932.0,17711.3,16776.4,9257.8,23139.5,14761.1,7031.3,18224.0,15937.9,18466.3,11977.3,14942.7,0.0,909630.7,
151,1.286,8666.6,33099.5,33163.6,10864.9,12822.3,14650.7,11869.5,8638.8,11621.4,15637.6,7445.9,10778.5,13669.4,7015.3,7009.9,10312.6,15600.3,11223.8,11028.7,0.0,1094509.5,
152,0.488,13079.8,12518.6,9875.0,11986.1,12799.4,12225.5,12778.6,11790.4,14871.5,9182.7,8635.3,13668.6,11938.4,11656.2,9426.7,9707.6,12360.9,12979.6,11835.5,0.0,1277184.3,
153,0.281,10698.2,17617.2,22731.4,20545.1,19683.0,25373.5,24868.7,20451.6,36199.1,45976.1,28484.2,142508.1,64030.1,11338.9,45238.5,94783.5,130755.5,31257.1,35642.9,0.0,1054080.8,
154,0.222,6698.7,8091.1,13178.3,14248.8,8865.1,12322.8,14232.2,10353.6,20721.3,22746.1,10398.3,178119.7,52727.9,6709.6,36304.3,62543.7,83704.6,17766.3,14515.8,0.0,1070287.7,
155,0.451,24784.8,25692.7,27184.1,27597.0,27673.9,28826.1,27054.5,29166.7,35006.3,34113.8,28878.6,39926.1,34655.7,28084.4,32360.7,31445.3,32727.3,29363.1,33583.7,0.0,967815.0,
156,0.222,9443.1,10668.7,11722.0,14612.9,11749.3,10851.5,11796.7,14517.4,13173.8,14116.3,15256.6,13435.5,11888.5,15706.7,15456.6,13467.7,14508.8,11129.4,14892.7,0.0,1235608.4,
157,0.233,12450.8,14095.1,15385.2,15781.7,15895.2,17656.0,17953.0,15132.6,24496.9,18003.2,9552.6,24628.5,23303.1,9849.5,12356.1,19556.1,20054.1,23194.0,18209.5,0.0,1007664.4,
158,0.2,10826.6,15038.0,20650.1,21822.9,14467.2,17283.0,20357.6,8791.0,15269.1,15385.0,13914.8,21203.3,17913.6,8846.6,12539.6,17418.9,20141.6,16606.0,16291.3,0.0,1042647.6,
159,0.239,8621.2,10303.2,11006.3,11147.2,10613.1,12087.5,11474.3,13516.6,16992.6,12456.3,9973.5,22683.2,12645.6,8761.3,15215.5,13174.9,10493.0,10854.7,14217.7,0.0,1191582.7,
160,0.214,11387.7,13643.9,16317.4,15618.2,13616.0,13857.6,15004.5,12245.9,18432.2,14988.6,9235.2,14500.0,13467.3,8883.6,12760.2,13905.6,14319.6,13243.9,17536.4,0.0,973801.7,
161,0.416,22928.3,25725.4,26423.2,24525.5,26232.3,29398.8,27204.0,27198.4,29532.2,21314.1,25146.5,28055.4,25748.0,24300.4,26303.9,25854.8,24658.5,23738.3,23954.5,0.0,1221628.1,
162,0.22,11520.8,10552.8,10867.6,13157.4,12425.6,13487.1,12915.7,19197.5,21062.6,17620.7,14903.0,25686.5,19233.4,13676.9,21681.7,18163.7,15556.0,17336.0,20934.1,0.0,1403163.2,
163,0.198,8476.6,11022.9,12991.2,14498.3,13205.5,14577.5,16294.6,11935.6,19352.2,19664.0,9348.2,18588.3,20920.0,8193.5,12441.4,13040.7,18272.4,18463.6,22689.2,0.0,984836.9,
164,0.19,7641.1,7033.7,6689.3,10038.5,8732.4,7765.4,7129.1,7741.2,9764.7,11744.9,9328.0,11254.8,11697.9,10147.5,9487.2,9161.0,12828.1,10175.4,11322.6,0.0,996267.9,Dot floating in a sea of blue- pink- purple streaming static
165,0.323,19738.9,24344.4,22403.8,23788.6,22974.1,23476.9,21718.0,23080.6,22481.2,16811.6,20943.4,29444.7,22094.0,20524.0,27976.1,26270.9,20153.5,22713.8,25996.1,0.0,1355257.2,
166,0.649,13624.9,17556.0,21072.4,22106.9,15700.6,19430.3,20770.2,15771.9,20252.9,18319.0,12557.6,22632.1,18340.9,11529.1,16247.5,15580.2,18202.7,18611.9,19750.2,0.0,1172680.0,
167,0.293,16054.2,25190.1,32313.2,30499.7,21160.8,23696.2,25959.8,20970.6,25762.9,23306.7,17039.8,18278.7,22963.0,16338.9,20325.3,14011.8,19596.8,27623.9,27236.1,0.0,894288.9,
168,0.512,16810.8,15441.2,17917.3,19930.3,17027.7,16590.2,16967.8,15972.3,17921.1,15918.6,13077.5,15247.8,16582.4,15211.9,14610.1,12673.4,16091.5,17006.9,18267.5,0.0,928401.2,
169,0.29,12544.6,19245.1,27109.0,30840.3,19070.2,23781.8,24473.8,16185.1,18724.9,27978.9,9103.8,25388.8,25277.1,8326.7,14583.7,19028.3,22847.7,23718.5,33172.9,0.0,1069717.4,
170,0.266,14788.7,15423.7,14295.8,16641.9,13449.7,14274.8,15573.0,20190.9,18767.0,12423.9,18254.0,55172.7,23291.1,17715.2,31406.0,36953.5,22115.4,17454.0,11329.0,0.0,999570.6,
171,0.295,14583.0,23131.4,24797.9,27239.7,25721.5,27485.4,24454.0,28165.3,33870.8,28969.0,16379.7,63931.2,37247.5,10089.2,29075.9,26993.1,37342.0,25465.3,31460.0,0.0,980155.6,
172,0.231,4477.0,7230.8,8985.4,13751.4,6951.2,9191.6,11020.1,10426.0,12632.4,20298.7,7455.5,23158.4,18150.8,3707.5,14537.0,20625.8,19766.5,16195.3,21267.2,0.0,999420.6,
173,0.269,15084.5,17901.2,28057.4,30709.2,21099.7,25543.1,28615.3,22862.8,31735.0,32175.1,21937.0,61956.6,42049.1,17441.3,29122.7,35820.8,34113.1,34698.0,38914.6,0.0,1059298.5,
174,0.387,8974.9,9340.9,11060.3,14488.7,11003.4,11377.4,12090.6,12486.5,17388.9,21513.3,27919.7,68452.3,23779.7,12410.3,32995.2,87932.4,43484.0,18041.9,20126.9,0.0,1195863.9,
175,0.195,11689.5,14895.7,17182.2,17881.4,17290.6,20197.3,19252.4,13481.1,21603.0,14817.1,25333.4,105666.4,27021.7,12672.3,36514.3,119871.0,32493.6,17820.4,16711.9,0.0,1075811.6,
176,0.547,7344.2,11621.0,10110.2,7647.3,8295.6,9324.1,8987.5,9428.2,12565.3,11136.4,25920.0,95492.4,26846.1,8070.2,35682.8,92306.8,60836.8,10076.5,9486.2,0.0,1010189.7,
177,0.281,19137.7,23792.7,27571.0,27115.6,23412.0,25909.2,25511.6,21452.8,25178.8,23876.3,21306.9,60192.7,36066.9,19907.3,26339.8,32631.3,35098.7,26743.8,23004.7,0.0,1143848.7,
178,0.17,7349.9,8267.3,7717.3,8829.3,8155.5,9341.3,9735.3,6758.9,9694.5,15090.8,11230.5,11847.0,16308.5,11445.6,8341.4,10135.5,20305.0,9057.9,14802.8,0.0,1184817.5,
179,0.346,10606.4,21312.5,27305.6,22375.5,13759.2,20275.3,24736.8,10986.9,19492.4,16248.0,15900.3,27149.7,16392.6,11374.9,14305.3,46850.9,28698.8,18222.1,21607.9,0.0,1093602.6,
180,1.569,11886.2,24364.6,30792.3,21922.1,17992.9,20813.4,20161.5,17174.4,18935.1,30553.2,12614.1,48680.4,31969.4,11340.1,23806.7,74350.7,47939.8,23193.2,26369.4,0.0,1059207.4,
181,0.453,29079.9,36969.0,30800.1,26274.3,34013.6,37755.7,34078.5,29361.1,49663.9,44491.4,35191.6,163409.8,65347.0,22894.2,55146.3,157590.0,114355.4,37480.1,45375.5,0.0,1114046.4,
182,0.276,24554.8,30807.9,29331.0,30840.2,31619.7,34232.2,35279.2,25122.6,29463.6,24552.0,23919.1,83591.0,28465.0,18717.7,30217.5,63154.1,45352.0,27703.7,28720.9,0.0,1017804.5,
183,0.232,9710.3,16067.9,19805.5,18130.4,16160.5,21532.6,22712.6,12573.5,27397.2,11534.7,28540.2,133979.6,31722.1,10259.6,35928.5,100552.8,53468.2,22039.6,13071.3,0.0,1107338.2,
184,0.208,16506.4,10849.8,9940.9,9748.7,14425.6,12122.6,9797.8,15055.6,19047.8,33758.1,7513.7,64476.2,38543.9,13507.8,12044.4,30361.0,40199.0,15207.4,21486.1,0.0,964765.9,
185,0.201,4656.1,7506.1,9038.5,3980.1,8154.3,10499.4,9156.8,8446.4,12805.5,9335.0,6672.8,22042.6,17413.5,5775.4,13582.7,12299.5,11753.4,7262.9,7155.7,0.0,1010768.8,
186,0.223,8291.9,12749.3,15040.2,12133.2,12520.8,15274.3,14515.7,9790.4,17632.5,11446.7,6875.1,25262.6,18127.7,5294.0,8544.2,11240.1,14592.6,13894.4,13749.4,0.0,1123453.2,
187,0.312,21885.4,28445.9,33296.2,39285.4,31579.7,35974.4,36378.0,28285.7,37991.3,25595.7,20779.9,58111.4,33783.2,20051.3,28402.8,36772.8,23130.8,32460.9,36798.0,0.0,948306.1,
188,0.207,11805.7,9416.5,10620.2,11114.9,12871.4,12655.9,11758.6,18743.1,17736.1,15075.3,29241.6,51747.2,17742.0,19540.9,35183.1,56246.2,18526.3,14748.2,11699.3,0.0,1055989.8,
189,0.231,7306.5,7956.1,12817.7,16323.7,9629.9,12383.8,12516.9,11471.3,16549.6,15356.2,14637.9,37390.2,13924.5,9942.1,18043.9,28128.3,16396.0,12022.5,18803.4,0.0,1159079.8,
190,0.206,11632.3,15052.0,17295.7,20628.1,20724.8,23021.0,21375.4,21735.9,30035.9,25524.9,17041.3,33964.7,29930.5,13215.2,31118.8,19683.3,24563.7,24553.4,27033.2,0.0,1105076.1,
191,0.253,13018.6,13575.7,14553.2,20509.0,15078.5,18406.3,19484.3,14153.1,22342.3,17633.2,13559.6,28851.4,20878.4,12145.6,15873.3,18577.6,16878.4,20475.5,22189.4,0.0,966959.0,
192,0.242,7170.8,10917.3,12574.4,15526.7,11993.9,12550.3,13712.2,11652.3,21418.6,23144.3,11431.2,32445.7,27196.6,9549.6,18197.8,16166.7,23611.1,18563.3,30876.0,0.0,918623.8,
193,0.224,5976.8,7007.3,10080.3,14490.4,9485.7,9631.7,12244.0,10266.7,14074.0,10364.6,6676.9,25801.6,14970.5,5110.8,10056.7,13210.4,13751.0,14920.7,11520.4,0.0,992532.2,
194,0.224,9851.3,12761.9,13490.8,14656.8,12334.2,14194.5,14364.0,8846.9,15066.5,18828.4,8041.4,22818.8,17877.3,8532.0,7202.6,6948.1,19752.2,16210.6,22843.8,0.0,1052993.6,
195,0.246,9075.5,12890.7,15193.6,11417.6,11342.4,12553.1,12158.7,10243.2,14738.9,12221.0,7731.8,28109.1,17443.7,6962.0,10919.0,13978.8,18902.6,13030.6,11373.3,0.0,1033314.1,
196,0.269,12608.4,14989.4,17860.5,18505.4,15725.6,18319.0,19905.3,15642.6,23991.2,12611.9,15342.5,19572.8,19156.5,11975.6,18311.2,19606.1,17376.0,20913.9,16225.7,0.0,839793.0,Flowing bubble sheets of purple and blue.
197,0.549,11965.6,19383.0,20408.1,19774.1,16609.7,20929.6,21606.9,14075.6,21475.7,28293.9,17290.2,71300.9,38915.2,10732.2,24259.0,40860.9,42208.3,25959.7,26050.7,0.0,1072524.7,
198,0.177,3418.5,3293.5,3598.1,4349.9,5998.4,6978.1,5771.5,8617.7,10461.6,9435.7,7399.2,38739.5,17390.0,4748.2,13606.1,15718.6,13646.8,7548.4,8509.6,0.0,923474.0,
199,0.219,7138.9,9234.8,12991.4,10808.9,9651.8,10360.0,11045.6,13477.7,15344.4,9935.8,12681.9,50360.8,19852.8,8941.8,18550.2,23390.8,19228.5,13488.1,12887.6,0.0,1077107.2,
200,0.247,12757.9,13600.3,14183.2,11177.7,16780.4,17574.0,13986.1,15083.2,17185.3,8050.9,12642.8,14441.1,7777.9,11702.3,14896.8,15932.6,10117.8,12051.5,8543.2,0.0,876645.3,
201,0.192,7602.0,7300.3,7444.4,9974.0,6926.5,8654.0,8636.3,9711.1,10076.8,12077.2,9124.4,25360.6,14066.2,6063.2,12994.7,17266.2,13401.9,7504.2,11734.8,0.0,890390.3,
202,0.218,7221.3,12023.9,12941.3,13020.6,11468.7,14968.5,14820.2,11896.6,18618.9,16900.7,14093.6,36799.8,17857.6,10323.2,16340.7,18173.0,18565.7,13632.9,17965.8,0.0,824336.8,
203,0.226,5465.7,7764.7,9212.8,13412.9,8916.8,10586.0,10781.0,8503.6,13095.9,13390.4,12903.0,38918.6,14650.2,9950.2,13127.0,17784.0,12431.7,13501.5,19151.9,0.0,925505.2,
204,0.218,10670.3,14539.5,15091.2,10934.1,12681.6,14445.1,13099.5,9260.7,12600.9,10133.3,6858.7,13101.8,10906.5,7993.9,7002.0,7353.8,9111.2,12470.7,13621.7,0.0,1090340.1,
205,0.173,9943.5,10097.4,13347.4,20575.6,11031.8,11752.4,13582.2,12228.8,13595.0,23429.1,6861.6,12637.9,18524.4,8170.3,11003.6,9053.7,18726.2,16386.6,24426.7,0.0,1040031.5,
206,0.294,23834.3,25936.6,31096.1,33075.5,30248.5,35902.3,36173.5,27352.9,37920.0,31073.7,24130.7,32345.1,31364.0,22023.2,29978.8,31276.9,28125.4,32829.6,31047.4,0.0,973755.0,
207,0.322,13232.3,11649.7,12217.8,15040.1,11918.2,12602.3,11387.8,13614.3,15347.5,15679.7,14552.6,22605.2,14730.6,13883.7,16192.9,17113.6,13158.6,14409.9,13576.5,0.0,1010885.0,
208,0.213,6383.0,11081.6,11837.3,11914.2,11788.7,15196.3,12640.3,7944.0,14483.5,9007.1,6230.7,12708.4,11863.9,5938.9,7094.9,7620.8,10570.2,13019.8,9659.0,0.0,948208.4,
209,0.257,8535.2,8125.3,8157.5,10011.8,7519.2,5923.1,6886.7,8232.5,10693.5,13560.9,10475.5,16588.4,13264.0,8163.1,11401.7,14136.8,14249.8,10275.7,15031.7,0.0,945052.5,
210,0.195,8582.2,8321.7,8971.1,10746.2,9933.3,11254.8,10825.6,8665.1,12568.9,6247.5,7436.1,5946.4,5308.4,7661.7,6179.1,8383.4,4677.7,8494.5,11814.2,0.0,882191.9,Find particles flowing back and forth.
211,0.264,16332.8,17981.3,19773.7,21802.1,14894.3,17458.9,17663.8,14469.2,18979.4,13259.9,8399.6,17382.7,15684.0,14420.6,13380.3,13814.6,12167.7,19289.1,17378.3,0.0,1120654.9,
212,1.464,14245.8,38548.7,43108.5,25455.2,18515.4,18127.0,17448.2,14505.1,15449.3,18019.7,11234.1,10978.8,11946.4,11152.0,10173.8,10779.9,17573.5,14997.8,17368.1,0.0,995548.8,
213,0.292,7998.4,12660.2,18516.0,17855.2,10628.9,12987.4,13810.5,8956.6,16986.9,32493.2,10098.5,63122.2,32942.0,7869.3,14170.8,38718.6,50519.8,18861.9,21311.1,0.0,1010749.8,
214,0.24,16148.5,19219.5,29416.8,31428.3,20247.1,26460.4,31028.1,21554.5,27508.8,25703.8,19075.4,35626.9,30725.2,14175.1,25311.9,24649.8,26315.3,32870.7,32575.3,0.0,1015448.8,
215,0.231,14426.6,15140.6,17096.4,16254.9,17781.1,19722.3,19138.6,19323.8,23327.8,17142.6,18162.3,22250.5,19842.5,18428.7,21470.4,22602.2,25681.3,18024.6,15153.1,0.0,1021676.5,
216,0.181,5871.2,9771.6,13354.8,13717.0,9511.0,14108.9,14406.9,8804.1,10832.1,15680.3,5191.4,7459.5,12029.0,5654.8,5405.8,5706.5,9929.4,13193.5,18132.1,0.0,944977.8,
217,693.905,7600325.4,305763.5,819916.9,2516845.6,240413.6,41011.2,46430.2,33759.2,32505.1,29992.4,20769.4,32316.1,24667.2,138877.7,24752.1,25402.8,19339.6,34893.7,48249.7,0.0,6555068.4,FRUITION-CALC
218,12.81,28016.1,50059.9,46957.6,46310.5,12364.9,10851.2,10486.3,6906.8,7790.6,7154.7,10438.3,7230.6,6672.8,7332.8,6328.7,13478.8,5964.8,8057.1,8371.9,0.0,1438836.7,
219,6.414,12686.7,10972.0,11831.8,10792.2,12695.0,11455.3,11181.2,13453.4,16801.5,6969.4,10831.0,47037.4,18774.9,11602.1,15756.7,17246.8,32967.6,12169.2,9941.7,0.0,916808.4,
220,0.897,16007.6,18596.4,22145.8,22968.7,20368.8,23684.3,25291.2,20557.6,27345.0,12361.6,16669.6,100196.0,30111.9,13859.6,28795.2,57648.0,46993.7,22102.6,14353.0,0.0,1535887.6,
221,0.297,6780.5,8338.6,12127.7,13236.5,7963.1,11157.4,12863.8,7792.0,14121.7,10009.4,7784.9,28651.0,13589.3,6327.5,8000.6,13981.1,20433.1,11226.7,9166.1,0.0,1288422.9,
222,0.793,14365.0,16570.4,21764.3,22596.6,18228.5,20938.7,24134.7,13034.3,17868.9,17615.7,7295.5,26568.4,19202.0,9235.8,8890.0,20931.2,20538.1,19563.5,21972.3,0.0,1119276.2,
223,1.611,12374.0,10842.1,9996.3,12057.9,13752.4,12752.8,12536.4,14313.6,15902.2,14423.0,16767.3,16802.7,16397.8,13652.5,14725.9,16699.2,17447.5,13104.2,13101.6,0.0,874151.2,
224,1.508,13458.7,13627.9,14783.5,18110.1,13713.1,14950.0,15248.7,13488.4,18285.1,15850.2,12641.1,14956.6,15670.7,14289.0,15267.1,15560.4,13074.5,16891.2,16303.4,0.0,835167.1,
225,1.509,13266.1,15365.7,15152.0,16487.2,14158.5,13707.1,13712.0,12950.5,14586.1,15677.2,14846.0,15826.1,14394.8,14657.6,14259.0,14762.7,17205.5,12845.3,16255.5,0.0,842923.2,
226,1.175,9978.3,16074.8,14956.0,17011.9,14048.1,17021.3,15891.9,11145.3,18256.2,18401.4,6945.8,12174.6,16483.4,6891.4,9855.8,10187.3,19868.6,14342.4,19949.0,0.0,675774.2,
227,0.666,12771.3,11900.6,12593.1,10903.8,12693.6,11918.9,10100.4,11901.2,13316.9,21135.5,19034.2,30666.4,23979.9,14559.4,22040.8,21819.0,23513.1,14751.9,15268.8,0.0,766567.2,
228,0.31,11387.7,15885.2,15810.1,13116.4,15314.1,17384.8,16703.8,18057.6,35143.5,24166.2,27424.5,255598.9,72849.7,10950.3,68591.9,150416.0,103640.3,21385.1,19729.0,0.0,814888.7,
229,0.292,7935.9,11066.5,12893.0,15571.7,13162.2,16143.7,17888.6,12454.0,28343.9,25555.2,32232.7,187877.0,70695.1,8384.4,43977.8,130102.8,128517.0,23702.7,15558.3,0.0,810565.3,
230,0.281,16339.8,17591.0,18898.9,17023.6,17182.9,18857.9,19830.7,16931.1,20040.7,34976.0,22065.6,161534.6,56210.9,12720.4,39473.4,92522.2,111665.1,20402.6,18059.1,0.0,817762.0,
231,0.325,18122.8,20403.6,23711.5,16931.0,22140.8,22135.8,24537.6,19016.4,24347.0,20056.7,18861.7,52098.1,29349.6,18328.5,19667.1,36306.4,46245.3,21644.8,18731.1,0.0,930962.2,
232,0.351,8493.8,15863.7,16904.8,15129.1,14750.5,18725.7,19617.1,9714.7,23915.6,26790.2,12889.9,50242.4,28175.8,9026.6,11649.2,29508.6,36935.3,18608.9,16998.8,0.0,909546.8,
233,0.502,10569.3,17486.4,20726.0,18700.7,15835.2,24608.5,23131.6,14855.5,31613.1,13484.3,9994.6,89932.0,22319.8,7148.5,25283.6,33364.9,12684.5,17292.9,15079.8,0.0,891238.6,
234,0.191,7015.2,14144.4,14105.0,11012.0,15930.9,19399.5,18280.8,8637.9,21979.0,21070.9,8395.8,105128.9,34174.5,6341.8,18944.8,45943.6,65274.3,13329.3,13525.9,0.0,959302.8,
235,0.196,11359.0,14234.0,12585.0,10423.3,14394.3,15120.0,13725.1,12732.8,15410.8,12419.1,11316.5,56406.6,32610.7,9888.3,11764.0,46850.9,30631.3,16311.0,11742.8,0.0,894218.8,
236,0.571,7343.2,7798.2,11390.1,11577.7,10374.7,11812.2,13296.3,12824.5,23825.8,28009.1,28381.9,134200.4,57063.2,9378.1,44801.6,120819.9,104976.2,19841.9,15031.6,0.0,884666.9,
237,0.323,7530.8,13021.9,18095.4,15007.6,13099.0,16837.2,17650.7,21442.6,32570.1,48146.5,56179.0,339658.7,117765.9,13146.8,108040.6,230326.2,200833.8,27055.2,21317.2,0.0,985692.6,
238,0.229,8002.2,9491.6,7611.9,6270.4,8783.3,8831.2,8050.1,8939.8,12643.1,14123.7,16086.7,125358.7,17534.1,8670.6,26632.5,63728.3,30391.8,6566.8,9107.4,0.0,1002384.3,
239,0.382,16534.3,26235.0,30790.6,26734.6,27053.1,33192.3,30746.3,19177.4,40762.1,27180.2,8822.1,69851.0,29606.8,8864.2,16607.7,27200.8,25559.1,32416.8,25777.8,0.0,932118.0,
240,0.245,14754.0,20022.0,26256.1,27841.1,22674.8,29683.0,31294.6,22757.7,49399.1,30065.5,41281.0,200589.9,59221.1,21984.7,62794.5,130087.8,64507.1,39231.7,31506.6,0.0,984686.1,
241,0.241,6513.9,10625.8,14265.7,18812.5,9546.4,11037.8,13182.6,11188.0,17776.9,24544.2,12370.9,64997.2,28962.1,7350.2,24636.3,49088.9,36809.1,17361.6,28513.6,0.0,957233.0,
242,0.223,15425.5,18232.9,26173.4,27321.0,24567.5,30021.9,31767.1,26214.4,54898.0,33386.3,24257.5,275146.2,77232.1,17123.0,61354.1,107392.3,86289.9,38650.7,33266.3,0.0,900493.9,
243,0.202,6881.0,5292.2,6591.0,5382.8,9085.9,10040.1,8205.2,15968.8,23294.7,17425.5,25150.8,144156.5,21571.8,7472.3,52283.5,104262.2,46184.1,10288.8,11964.4,0.0,979733.7,
244,0.222,8977.4,13381.5,12527.2,11566.7,14110.7,15253.1,14294.8,13763.0,18487.7,26211.7,14435.2,68909.2,39981.0,10648.9,17909.6,39270.9,97920.9,13725.4,16335.3,0.0,794674.9,
245,0.301,14556.3,26634.0,31095.1,28104.2,25229.4,31644.4,33935.0,21548.5,40173.6,34754.0,34984.5,260994.0,77329.6,9765.5,67325.1,196067.4,149574.7,33257.8,31395.7,0.0,856966.5,
246,0.207,13773.3,24637.2,28589.4,21483.4,27528.6,32400.9,31594.9,17893.0,40666.3,8460.2,22443.4,124471.6,33505.9,8892.9,38661.6,109373.0,60862.3,28314.1,14760.9,0.0,843308.4,That was a no -self door fruition on fine purple particles flowing towards my eyes.
247,0.325,14834.6,17745.9,20968.6,18358.7,21492.7,24693.5,22966.2,15405.3,24815.8,6912.5,17116.5,85805.1,18856.0,10011.1,25574.7,82197.6,42099.4,17867.4,10264.7,0.0,838242.2,
248,0.385,12606.6,19592.4,24901.4,23695.4,20766.0,25057.7,25792.9,12972.6,26948.9,16341.3,24250.3,79862.3,39022.1,8780.4,30245.4,68875.2,57631.1,20889.4,16127.9,0.0,889168.1,
249,0.378,22483.3,23768.9,24966.1,27623.4,24363.2,26438.1,27133.1,20333.3,32465.1,45446.4,25920.2,172939.0,79232.9,13093.7,40642.7,117466.5,169141.7,34056.8,32023.3,0.0,925096.1,
250,0.382,18687.6,20020.3,29906.3,32694.4,21609.5,26926.2,32747.5,27496.8,41583.2,31894.2,30753.9,137578.1,47399.5,21259.4,51837.2,101752.7,61722.9,33961.0,27704.3,0.0,871432.4,
251,0.266,10241.5,15632.9,14904.0,9681.8,17210.3,18629.4,14259.6,12370.1,21805.8,5964.0,8284.1,48551.9,16963.2,5731.0,17184.6,29048.7,26500.3,15939.4,10641.2,0.0,811482.8,
252,0.274,6463.5,7852.1,9607.7,9766.7,8875.2,9372.1,7974.4,13245.2,15040.1,10625.6,13353.5,35079.7,10498.3,5818.1,17945.3,38512.9,26123.9,9204.3,7458.1,0.0,911656.0,
253,0.49,18376.9,25559.2,28012.4,29074.5,31049.8,37651.5,37555.6,23661.9,47984.9,35397.4,28225.2,141905.8,60768.6,20491.7,18831.7,112903.0,137801.4,36881.7,28383.5,0.0,813302.3,
254,0.293,17242.7,22395.1,30752.5,43855.1,31542.5,35692.0,40503.0,31992.4,62953.3,56556.9,23621.7,194238.1,93743.2,14844.9,47433.0,91727.2,139213.2,54439.2,48710.4,0.0,819366.8,
255,0.215,9695.5,7000.2,9109.1,8484.2,6097.1,6846.8,7996.3,6592.2,7605.8,12150.5,9320.7,17961.2,13868.7,11326.8,6150.7,10218.8,15552.0,8497.6,11579.3,0.0,831132.5,
256,0.213,10698.0,11869.7,12320.0,19476.5,16321.9,17185.6,15327.2,16020.3,24314.3,15353.9,10451.2,21883.5,19205.0,15088.8,17206.5,11430.4,12342.6,17549.5,18967.2,0.0,858517.9,
257,0.319,15016.5,19524.7,22817.6,24662.5,17195.5,22770.9,22233.5,15152.5,21011.8,22063.2,11467.3,15613.2,14622.9,14604.6,11947.1,15731.9,13455.9,21443.4,25204.0,0.0,805874.6,
258,0.201,13975.3,16278.8,17465.7,13782.1,14649.9,16502.0,15587.5,13305.5,12808.9,22976.3,29363.6,24020.5,12384.9,13235.4,15799.1,67225.8,46868.6,11437.9,16746.1,0.0,854730.9,
259,0.267,13857.8,17852.0,20343.6,24596.9,17653.0,20266.1,22215.9,13274.0,19750.3,31842.2,13380.2,89242.9,40464.9,9510.1,23766.4,50315.8,68905.8,23107.6,21506.8,0.0,876481.5,
260,0.214,9792.3,10131.9,14997.3,17268.2,13403.9,14351.2,16579.2,18535.5,27962.1,15371.9,15350.9,124003.1,40755.9,13438.3,38675.6,44833.9,43264.1,22130.2,16563.8,0.0,838252.5,
261,0.514,21184.3,19202.7,22140.2,20698.0,19694.6,19092.9,18833.0,27183.4,31531.7,33715.5,39862.0,158496.4,62268.7,21634.7,65184.5,121276.3,92155.9,27986.8,25313.0,0.0,790232.7,
262,0.249,12041.3,14791.0,19161.0,23815.2,16365.5,19305.6,22980.0,16073.8,26224.3,20997.6,11303.0,65051.1,32172.6,8420.7,22820.5,32605.6,24393.3,25482.4,27388.2,0.0,870495.2,
263,0.193,14713.3,15917.0,18513.4,20089.0,16162.2,18501.2,21543.8,16719.1,24696.1,12793.8,14368.9,19624.0,19201.0,16381.6,15515.9,20465.5,11131.7,21871.0,17972.3,0.0,904769.7,
264,0.316,20452.3,21028.5,17415.2,19831.5,18531.7,18845.5,17673.6,18355.1,16659.1,43722.8,34324.8,77733.0,19097.4,18855.9,48108.8,118857.0,43584.1,17324.4,29066.8,0.0,804170.7,
265,0.425,24781.0,33716.6,37572.5,36939.5,38081.4,45087.0,43926.7,41123.6,69762.2,34172.0,30286.4,159467.9,64028.2,23608.6,63458.0,100078.0,59426.7,51729.1,32574.1,0.0,868385.2,
266,0.229,7610.5,14054.7,16600.9,14991.1,13910.3,17141.6,18096.1,10194.5,21338.6,12862.9,9430.9,38820.4,14562.9,7852.7,15991.1,25786.8,15176.3,14058.4,16534.9,0.0,742597.3,
267,0.19,7884.6,8813.8,11721.9,7724.5,11769.5,13360.1,12161.8,10131.0,14378.2,7272.9,9143.7,20495.9,9506.1,8753.8,8706.8,27498.9,23838.2,10456.3,7305.8,0.0,749773.5,
268,0.233,10677.4,17149.3,17357.0,14908.5,16962.1,17942.1,16306.9,11656.8,16750.4,8318.8,22641.3,48948.9,14490.8,9967.2,28012.2,66508.6,14862.5,12772.8,11958.7,0.0,722404.6,
269,0.252,13608.8,16687.3,16265.3,15954.0,22042.9,22095.0,19979.0,27315.2,37749.5,19324.3,26224.9,115251.8,50595.7,18774.8,48698.3,68009.6,50531.1,25359.7,17882.5,0.0,792756.0,
270,0.203,11080.4,15156.6,13595.5,12486.7,16843.7,18034.0,17301.0,14952.3,40267.7,26257.8,15525.6,87228.2,39298.1,9926.3,25053.1,46131.3,55558.0,21963.2,21500.0,0.0,776393.2,
271,0.201,15146.4,18120.7,22098.7,14108.7,22999.1,26225.2,25794.0,27322.1,41923.2,10311.0,25663.9,91027.1,34603.6,20073.9,48139.0,56954.6,21721.0,29233.9,15618.0,0.0,887045.2,
272,0.209,15049.9,16140.1,15308.4,14983.3,19063.2,18990.5,16980.0,13986.4,17684.2,21919.2,14038.3,27822.3,21470.1,10420.0,18605.5,42561.8,54525.3,16440.0,16371.2,0.0,896825.9,
273,0.219,12092.9,17986.1,22741.2,25227.9,21030.8,27276.0,27355.3,21794.1,41273.8,44570.6,19160.8,112832.7,65439.3,13496.7,37283.5,69737.0,83838.7,37944.4,37587.8,0.0,789241.9,
274,0.209,16528.5,19251.6,22251.1,23055.4,20332.2,21664.1,22334.8,15483.9,27259.4,33047.7,20970.4,111514.5,48274.8,12022.9,32684.7,89800.4,76107.0,24718.8,32524.1,0.0,871535.0,
275,0.303,28217.4,34132.5,34688.8,35414.0,38622.7,42166.5,40517.5,42112.0,60063.6,45216.0,27455.9,197202.7,90086.2,29001.9,58875.8,76211.5,95228.0,50720.5,35689.4,0.0,972254.8,
276,0.186,19032.1,20408.2,21196.4,16325.8,25289.3,29153.8,24665.4,24885.3,36775.2,9756.4,35306.6,105322.4,18455.4,19455.9,51279.3,116158.8,44892.3,18403.9,11693.2,0.0,961794.0,
277,0.213,8679.1,11633.5,15668.5,19221.7,11431.3,15456.5,16722.0,11654.5,17656.6,24636.2,18348.3,125394.3,42018.7,8258.8,34878.8,77616.5,88753.8,21728.6,26822.4,0.0,947979.8,
278,0.183,9523.6,15301.3,19543.6,14379.3,16899.7,21816.2,20890.2,12896.7,18809.0,27565.1,15590.4,97905.9,50800.4,8876.8,22102.5,44549.7,104328.4,17966.6,14597.6,0.0,943882.3,
279,0.325,18376.5,29189.2,35835.9,32031.4,29209.2,34841.4,34696.0,23800.1,42253.9,24509.6,9973.0,137442.0,63363.8,11583.6,29107.2,48615.3,75806.3,34180.2,27159.1,0.0,945571.2,
280,0.314,8104.4,10200.8,14168.1,16718.3,11278.4,15056.8,16608.5,7207.3,16621.0,21982.6,21189.3,134659.3,36967.9,5992.0,40161.8,130568.0,77527.9,18233.1,23980.3,0.0,924853.3,
281,0.196,9808.0,12582.4,13336.2,13379.5,15539.8,20136.2,18236.7,15632.8,33902.0,25905.5,26417.8,206311.5,80397.4,12543.4,48826.0,78579.6,133796.3,24827.3,15791.5,0.0,872530.2,
282,0.812,6673.0,10761.5,11614.5,9926.6,7706.8,8474.4,9068.7,6990.0,13640.9,18072.6,22850.3,75944.2,25813.8,7650.4,26318.8,74273.5,36829.1,11530.7,10169.3,0.0,777620.2,Very peaceful - quiet afterglow
283,0.498,10397.1,11073.4,14612.5,19421.7,10715.6,11282.4,14382.1,15122.6,19369.9,23143.2,19784.1,92989.8,35695.2,8874.6,25449.2,60837.7,57657.5,20213.7,17549.6,0.0,920704.7,
284,0.249,13782.0,23327.9,25372.5,36134.3,24090.3,26786.2,29832.0,22086.7,36345.1,42427.2,16430.3,116469.2,56021.7,10787.7,37100.3,55327.3,52162.5,38847.5,39459.9,0.0,974699.6,
285,0.197,5522.3,6165.3,6358.4,4880.7,6849.4,7737.1,8971.1,6418.6,15135.8,6384.5,12170.3,103836.5,19432.5,5860.1,22208.7,49347.3,27020.3,10473.4,5759.7,0.0,892097.5,
286,0.201,10109.0,13811.6,16481.3,17356.7,12304.1,15799.9,17078.7,7812.8,12165.2,40940.3,18961.4,72795.8,38198.4,8705.6,18670.1,58374.5,108509.5,14584.5,19677.4,0.0,915692.4,
287,0.191,7157.3,8927.4,9160.4,11571.4,9443.6,10816.4,9968.5,9449.4,15205.0,19390.6,12812.8,81346.1,30878.8,8287.6,23776.7,51727.4,55415.1,12167.3,12625.4,0.0,944563.1,
288,0.255,10269.5,11379.8,15446.5,16110.8,12365.1,13130.2,14112.3,14490.9,14058.5,13148.1,13853.8,30683.9,20577.4,12279.0,18955.5,20310.6,32681.7,14962.2,16624.1,0.0,803185.8,
289,0.215,22196.6,29538.7,31052.9,37052.4,35986.0,40808.1,40341.0,30852.4,48360.7,49749.0,13284.1,70477.4,50332.2,14030.8,23396.2,27520.7,81693.1,40817.3,44577.9,0.0,851249.6,
290,0.19,7757.3,12155.3,11857.1,12819.0,13581.4,17762.3,15690.3,12831.1,20222.2,12842.0,7975.2,29886.2,16761.8,3765.1,16318.9,23911.9,14407.4,13765.4,18004.9,0.0,957018.0,
291,0.317,13625.0,16927.9,20225.6,25117.9,18936.8,23057.3,24307.7,23080.6,26454.7,27690.9,25985.2,30242.4,28860.1,21095.2,29075.6,31092.3,26512.2,25967.1,26745.0,0.0,833833.8,
292,0.212,7711.4,9664.6,12307.6,12669.4,8844.2,10734.9,10964.2,9262.8,10077.1,14965.9,10699.6,13049.3,15042.1,12759.2,11212.3,11656.7,15051.8,11960.7,17613.5,0.0,955929.6,
293,0.181,8211.3,9302.9,12911.3,16156.6,10713.7,12409.7,13368.4,12069.2,12419.5,14537.0,9779.2,13603.3,12894.6,8326.5,10946.0,15535.7,14627.4,12939.6,18169.8,0.0,979046.7,
294,0.218,14598.5,15853.6,17107.0,18180.0,13750.2,15419.0,14722.9,15669.8,21614.5,28758.3,19042.4,75728.8,31590.9,19173.8,24923.7,35767.6,29386.1,21122.8,26903.8,0.0,943426.2,
295,0.181,7296.1,6187.9,7023.8,8285.9,8599.1,8740.1,9417.8,7833.1,8881.1,8315.9,6725.1,13715.8,10363.4,6714.4,9646.4,9825.9,9174.0,7302.3,11478.6,0.0,960044.4,
296,0.287,14420.2,12392.2,13393.4,12028.1,13251.3,13915.3,13236.8,12143.5,10398.1,11914.2,12220.5,6865.8,11760.5,14780.9,9085.6,9057.9,10653.6,12283.0,13666.8,0.0,1100408.9,
297,0.191,15816.0,16800.9,15919.7,16642.8,19288.9,19379.6,18241.4,20865.8,20707.6,13421.5,14084.8,25659.2,16452.6,14625.2,19271.9,21426.0,16855.7,16790.9,13858.0,0.0,1047474.3,
298,0.228,9434.0,11082.1,14461.8,14447.4,10889.5,15039.0,15367.9,14665.1,19140.9,17402.3,17723.2,20612.8,20450.9,15206.4,18935.4,17198.7,17641.9,19839.8,17915.2,0.0,1105526.9,
299,0.199,11018.1,11175.9,9852.5,12137.4,12589.9,13074.3,10955.8,10926.4,11258.5,12864.3,7808.7,19897.3,14121.0,8023.8,11001.7,14176.6,19561.8,12018.6,16915.3,0.0,1059581.3,
300,0.196,10545.5,11786.2,12836.1,11283.9,15152.5,15506.9,14996.6,17820.4,23056.2,10730.7,10184.8,18762.4,14160.4,9157.7,16502.3,11571.9,14885.4,14081.3,12189.9,0.0,1157849.8,Space getting a milky purple blue
301,0.267,10051.4,11804.0,14981.4,17917.3,13002.1,14326.0,16704.3,8535.8,12637.9,13789.8,9494.3,15716.5,14382.9,10116.2,9670.4,20273.0,30518.9,16074.1,13778.4,0.0,1250218.7,
302,0.326,11830.7,21104.5,25861.9,24421.3,17142.0,20091.3,24733.6,14806.7,22431.7,18079.0,21129.1,66351.1,27831.7,9289.8,31341.9,59718.6,32542.1,21858.9,17227.3,0.0,1288674.2,
303,0.287,11972.7,11489.9,11820.6,12320.3,13269.2,13951.5,10813.2,12301.1,15264.6,12433.3,16521.7,17938.0,14431.3,13230.5,14519.9,18176.9,12723.4,12268.8,12891.6,0.0,1285828.6,
304,0.338,13963.2,8728.0,8595.3,10944.6,13883.4,14914.0,14714.3,16568.8,18294.3,15176.7,21633.4,49599.2,23737.4,15754.1,23778.7,39235.1,43422.6,13867.0,11979.0,0.0,1340463.3,
305,0.347,31183.0,40752.9,43157.0,40873.8,47000.0,53805.8,49403.0,37405.6,64067.5,32536.9,15331.5,128424.1,66684.4,20637.1,38053.4,50961.3,65901.2,49625.5,35139.8,0.0,1249212.1,
306,0.308,7545.4,10185.4,12000.1,11746.7,11453.3,12574.0,10639.6,10817.9,13887.7,15439.0,6532.5,14786.8,13688.3,4650.6,8733.7,10212.1,17788.4,11565.5,16974.9,0.0,1223028.8,
307,0.2,11565.1,12372.7,18997.9,22733.1,17731.8,17391.4,18138.6,15877.0,20157.4,19103.4,14443.7,20539.1,19049.3,16642.6,18621.4,13369.0,13962.5,18136.5,29520.2,0.0,1231549.7,
308,0.414,25101.0,31656.8,28908.9,27420.1,30952.6,32985.2,32216.9,28717.0,38961.9,20688.5,23705.3,32278.2,27592.3,23835.4,27471.6,26918.0,23642.2,29481.5,27027.2,0.0,1205310.4,
309,0.193,12556.8,19282.3,25318.4,30731.2,16937.9,22498.7,25195.0,13510.4,19319.1,29098.8,14711.9,18951.1,21992.8,16013.6,14428.4,15111.9,22118.3,22958.1,32126.8,0.0,1341270.5,
310,0.414,6501.3,12069.5,16285.3,18283.2,10713.7,13398.2,16275.2,11170.2,15317.2,16070.3,15418.0,16232.1,15665.1,8441.8,13243.4,17646.5,15896.7,16617.5,17379.6,0.0,1101437.2,
311,0.195,6549.8,10328.0,13382.6,12034.3,10872.2,13197.7,12557.1,10980.2,11642.3,5522.0,6994.4,10178.2,8379.2,5950.0,8777.6,7982.8,7105.5,9854.8,6905.9,0.0,1111438.4,
312,0.231,5965.8,8253.8,10017.9,10683.0,6991.2,8865.1,10222.3,8255.2,16974.0,9632.3,14521.6,112383.3,27282.3,6980.1,29705.7,68827.9,47928.0,12940.2,8819.2,0.0,1116766.8,
313,0.189,10747.3,14242.6,12195.6,13644.8,16914.9,16787.8,14466.6,16273.5,26180.4,13164.6,7770.4,71148.9,22838.2,8034.3,16985.3,16331.7,18937.7,13595.2,16586.9,0.0,1064471.4,
314,0.212,9467.8,9848.9,9553.2,6871.6,10143.3,9134.1,8730.5,8700.0,9573.9,6782.5,8854.2,19582.1,11217.3,9261.0,11490.7,9440.7,9576.7,7013.7,5414.9,0.0,1167597.7,
315,0.232,7428.6,10586.5,14104.0,16221.4,8895.5,9636.1,11442.9,7036.8,9826.5,15109.8,9183.6,12366.2,10999.4,5989.9,8872.3,12990.7,14037.0,10497.4,16727.4,0.0,1112366.0,
316,0.184,12633.5,10743.0,9470.8,11572.9,11774.5,12419.6,11850.2,13742.4,13655.4,12101.8,8659.5,11248.0,11251.8,9061.5,11293.8,9392.3,11667.7,12230.1,13922.7,0.0,1051862.9,
317,0.213,9136.4,11965.3,15648.5,17966.6,8809.4,11026.4,14432.6,5529.3,10615.0,12661.0,9791.0,22102.6,14987.0,5540.6,10163.7,17434.6,18194.3,14279.4,13888.7,0.0,1192472.3,
318,0.228,7813.3,6902.9,7972.9,7826.8,8129.5,7930.7,8364.1,7691.2,10366.9,20435.4,10967.1,51885.4,20400.0,6571.5,13960.6,31371.5,38986.8,10325.2,11068.9,0.0,1130164.5,
319,0.31,13766.4,20479.0,24715.2,28723.1,19609.4,23322.0,24378.9,15040.0,25441.7,23542.1,13026.7,47221.1,31389.5,12075.7,19590.1,23458.8,24857.7,27997.9,28443.2,0.0,963609.6,
320,0.248,16298.5,15242.5,15626.6,13750.7,19892.3,17460.1,14683.7,22586.5,20870.0,20312.6,26120.1,35379.3,23028.7,19672.6,28785.6,34060.0,40620.3,15601.4,16723.0,0.0,1043977.5,Streaming purple particles in an opalescent milky space.
321,0.632,5534.5,8892.7,15456.7,20516.0,8466.9,10855.5,13635.4,9013.6,11785.4,22113.7,11855.1,69747.3,33660.8,9171.7,16198.8,24357.2,54897.4,17507.6,19355.1,0.0,969102.1,
322,0.404,12571.9,14900.8,16039.8,17863.1,13750.0,14225.2,15067.3,12843.8,16421.5,18770.0,10919.0,13713.4,16951.6,10349.1,11178.2,12436.7,14580.7,15568.8,29263.1,0.0,997489.5,
323,0.326,15875.3,19322.0,18558.5,21023.1,17663.0,18776.5,17405.8,14854.9,20203.5,17109.3,6946.9,21090.2,18551.0,9450.2,13419.1,18675.3,34222.5,17352.9,23521.6,0.0,974933.0,
324,0.391,10982.7,16921.0,22431.7,21095.5,20887.0,28385.3,27572.5,15039.1,42024.0,29925.6,28111.7,200144.7,72802.6,8218.5,47429.2,136406.5,147180.7,33635.2,21517.3,0.0,1019108.1,
325,0.327,30022.4,33833.4,31518.5,31408.2,36237.6,37855.9,33643.1,38314.2,43025.7,34689.3,28933.4,87651.2,46735.4,25605.2,36680.6,69310.8,51720.7,35962.3,32462.5,0.0,1004523.5,
326,0.481,16112.3,13669.2,12263.3,12191.8,15052.6,15188.8,13752.2,15709.4,16628.6,19203.0,18241.7,16499.1,13237.9,19525.1,13710.6,19474.5,14652.6,13938.7,20408.8,0.0,1002689.9,
327,0.206,8879.8,9554.9,9166.9,9682.9,8823.5,10086.9,9511.3,15104.5,15660.2,8701.1,15264.7,21743.4,13312.3,14792.5,19200.7,13957.9,11026.2,12307.5,11221.5,0.0,946225.0,
328,0.231,7924.2,15829.4,20581.8,25501.8,15757.4,19262.5,19760.3,12484.5,19242.9,30608.7,10627.6,26678.1,27547.4,7808.5,16084.1,22199.8,26075.8,23399.7,32285.4,0.0,940314.3,
329,0.249,13062.7,13707.5,13924.7,10515.2,14813.6,15938.7,16383.4,14533.2,20141.1,14530.3,10257.4,19962.2,13427.4,11628.9,14078.4,15003.9,18130.7,13686.2,16838.0,0.0,1003187.0,
330,0.257,8256.1,7824.8,9311.8,10794.8,11432.3,12982.9,11283.3,16028.4,17119.6,18838.1,14470.2,18476.1,16175.0,15011.6,18635.7,13273.6,13201.7,12988.0,18497.0,0.0,988202.7,
331,0.227,8550.8,11231.0,15547.5,16650.9,12248.1,14581.9,17171.1,10658.1,16180.4,12489.9,10207.4,12557.3,14376.0,8983.0,11688.5,11016.7,10810.3,15644.0,15174.4,0.0,1016923.5,
332,0.217,5581.7,6836.1,9725.8,10118.2,7485.3,8635.2,9406.7,5896.9,8184.4,12384.8,10630.2,7752.9,9439.9,8314.2,7672.6,12356.6,9929.1,9766.1,11180.3,0.0,933704.3,
333,0.179,11800.6,12969.8,16251.4,17706.0,14256.6,16612.1,16840.1,16670.8,17156.6,11111.1,13719.7,18580.2,11593.5,14963.3,18060.4,13434.3,12216.9,14402.0,17112.6,0.0,1099962.0,
334,0.203,8433.2,10904.4,12873.5,11848.8,10208.2,11215.0,13050.7,9280.4,11603.6,12291.5,7727.0,11752.8,10859.5,7895.1,7104.6,14341.9,15420.6,11438.1,14608.9,0.0,1020602.2,
335,0.249,10518.1,14506.2,17821.6,13328.6,14912.7,18708.2,17547.0,9923.6,17135.9,14243.8,6065.5,12660.3,15219.8,7954.8,9196.8,10876.4,10941.5,13222.1,17135.9,0.0,994832.2,
336,0.286,21752.0,24145.4,23750.7,23618.9,25440.8,26008.1,26249.9,21400.0,26021.4,23745.8,16415.3,25056.6,28970.9,20630.7,18225.5,14369.4,28457.0,27607.4,23221.4,0.0,1161941.2,
337,0.252,23270.6,17834.1,16942.5,17328.8,19900.0,18576.7,18866.4,20099.2,16723.7,17737.2,22051.2,22259.6,18626.0,23306.4,20502.0,21193.6,21414.5,18537.4,18472.0,0.0,1163045.4,
338,0.24,10475.7,11883.3,15591.2,15213.8,14833.7,17743.7,18705.9,12446.6,17759.2,13382.5,8301.9,16420.2,16509.3,7893.8,11749.7,11505.7,16682.4,16327.9,12474.1,0.0,1050112.3,
339,0.311,11832.9,15517.1,18975.0,18052.2,13909.3,17014.3,14823.8,10148.6,11814.7,18105.9,14795.6,14846.1,16553.7,10140.2,10369.0,18547.4,20400.0,13920.7,21253.5,0.0,1104176.1,
340,0.293,6341.0,11080.7,16481.5,14197.9,10418.4,14435.4,16090.6,9532.1,23765.7,15122.1,9366.6,37287.6,26205.5,6210.7,11771.1,13063.6,29689.7,17090.1,13014.8,0.0,968303.9,
341,0.489,11313.3,12371.4,16344.0,14167.4,13462.3,16456.2,16092.1,13975.0,17068.1,8521.9,10078.9,20772.4,13692.0,9704.6,14409.2,11089.9,10395.3,12524.4,11856.2,0.0,999821.4,
342,0.262,8814.8,11128.5,9594.3,11063.9,9156.1,9859.5,9134.1,9778.9,10264.4,7977.0,12386.1,16900.0,9954.5,11596.9,13173.5,17614.7,9848.8,8751.5,8390.7,0.0,994462.1,Ball of purple energy in an opalescent space.
343,0.204,4410.5,4765.5,6541.2,6059.2,5806.9,6745.0,7060.9,6352.8,7672.2,5570.0,6744.7,12233.2,7932.1,4782.6,7647.1,8436.7,8960.6,8676.7,6939.6,0.0,989563.5,
344,0.177,9693.8,12126.3,14383.6,15444.9,12829.9,13758.9,15579.2,11595.7,12818.3,18298.4,7044.6,14962.6,14579.5,10556.6,12902.3,9080.6,12024.4,17614.3,21598.1,0.0,1036997.4,
345,0.208,11997.0,15578.3,15987.7,17602.0,15081.1,17596.4,18748.3,12380.4,18304.4,18474.5,8727.7,36290.4,23962.9,12170.8,12587.7,7249.7,16068.8,20941.9,20776.5,0.0,920639.9,
346,3.638,159431.9,123719.7,114490.0,21271.9,38342.4,20459.4,22457.8,20017.9,19537.9,34697.5,13840.1,47034.1,32171.5,8178.4,15004.6,25162.6,36294.1,29083.5,34754.6,0.0,1181443.3,
347,30.379,1564194.4,138264.6,292701.7,654901.8,82274.1,31754.6,42331.0,36990.8,60583.7,41542.1,37909.6,63225.1,38733.8,27219.3,33042.3,84639.8,108053.7,75747.4,22756.3,0.0,10846305.3,FRUITION-CALC
348,6.776,27484.1,28746.9,28854.3,24652.7,31205.5,29480.9,28403.3,29468.7,35897.8,25331.7,26061.8,25516.4,26788.1,27075.2,23735.0,19658.0,22648.3,29562.0,27021.5,0.0,781722.1,
349,2.141,13405.4,14372.7,22500.5,24022.4,19084.7,22020.2,23546.8,17545.4,24006.2,37174.2,20427.5,50659.3,38681.0,15430.0,23674.7,44954.2,91325.3,25548.8,23713.6,0.0,890801.1,
350,0.369,8260.6,9109.4,16539.5,22146.2,11083.0,16876.3,21709.6,9404.8,21023.6,31551.0,12281.3,81155.0,45334.4,14696.7,14257.0,26153.0,78668.2,25939.3,29461.9,0.0,1058962.7,
351,0.245,17747.8,20885.9,21078.3,20517.3,17951.1,19544.1,21515.0,18104.6,21990.2,25171.3,17038.0,74481.6,35881.6,19212.1,19565.3,26664.5,43250.6,23609.2,22696.0,0.0,1001040.3,
352,0.3,7315.8,10798.9,11462.7,9998.7,8719.6,11203.3,11569.5,6107.7,13419.6,17524.2,9934.3,58044.4,24517.1,4586.0,12528.7,32510.9,33928.6,12013.6,10496.4,0.0,774664.8,
353,0.348,8850.9,10340.7,15193.6,17766.3,10646.5,13990.3,16974.5,14090.6,21208.0,38149.2,21407.2,72332.3,47099.5,10717.5,29680.5,41592.5,61060.5,24679.2,25189.3,0.0,746719.8,
354,0.19,9119.9,12441.9,12177.8,13341.2,15153.3,15348.0,14274.7,11711.8,26707.9,21216.3,8373.1,90036.6,38792.0,5195.1,25003.5,35447.4,28990.1,17936.9,20591.9,0.0,739890.7,
355,0.397,21021.9,33586.9,38533.2,26300.9,35452.8,42482.0,38971.8,22068.2,42570.3,11426.1,25457.8,129506.7,41276.1,19470.8,39564.6,81712.0,56711.4,29199.6,19494.7,0.0,781651.5,
356,0.384,14151.2,18949.9,18614.7,17918.2,20978.8,24571.3,20918.9,19194.3,27499.5,19849.9,11946.2,51182.5,39281.4,12153.7,16092.3,11549.5,21923.9,20814.4,19535.4,0.0,822266.0,
357,0.24,26883.0,22962.9,20613.9,22467.4,25604.0,23333.4,21732.4,29007.1,27214.9,26825.3,28683.1,42856.1,35759.7,28491.0,28828.1,28180.5,38104.3,21580.1,24920.5,0.0,879266.6,
358,0.238,4349.5,8214.8,9097.3,10814.9,7973.7,8478.4,9842.1,7945.6,12395.7,14548.3,6578.9,20817.6,18248.0,4410.2,12750.6,12868.9,20792.4,14004.8,14757.6,0.0,757682.2,
359,0.198,14619.5,19497.3,15736.2,21133.7,17559.6,18207.6,17474.1,13278.5,17931.5,31893.1,15971.9,55501.1,43419.7,13672.2,22880.4,39665.0,60011.3,22056.5,27048.7,0.0,850800.3,
360,0.245,28047.4,40374.3,38398.6,27170.5,43135.4,45551.0,40213.5,25836.2,40734.1,33458.3,15822.6,169558.5,61026.1,10508.3,28039.7,114851.6,228521.5,25607.4,13583.9,0.0,818850.8,
361,0.217,22075.3,29253.8,28191.0,35360.6,33716.1,40156.4,41162.8,31822.9,63740.2,43716.7,22405.0,203163.9,84628.4,16314.9,62422.9,122741.3,93992.3,55950.4,46738.5,0.0,860077.6,
362,0.186,6942.5,7959.8,10251.2,14046.3,10837.1,12860.1,13808.3,14914.0,28319.2,29658.4,22881.6,171903.6,64344.6,8697.0,46793.9,102637.7,54971.4,24553.2,26356.3,0.0,836539.5,
363,0.23,11291.2,14792.3,17756.2,21939.4,21714.6,25607.2,30168.5,26160.4,64405.1,41796.3,12633.4,214248.8,121897.2,9713.9,40394.1,54120.9,136829.4,50285.4,31417.9,0.0,845109.1,
364,0.201,12740.4,16876.5,14352.7,15022.6,16742.3,17613.0,17042.8,16485.5,28626.1,26227.8,17378.1,129509.0,57067.8,13054.6,31773.0,58314.0,38633.7,26491.2,28386.6,0.0,797970.0,
365,0.264,13832.8,16943.2,19147.3,20584.5,17429.1,23518.7,20272.7,16116.2,29918.8,38332.5,17939.6,218141.7,91038.6,8428.4,43028.4,96575.5,134499.7,33021.1,28253.6,0.0,790246.0,No self -impermanence door fruition on particles streaming around a purple energy ball.
366,0.224,7237.5,7392.2,8888.0,11829.7,10590.6,10698.0,13035.1,9058.1,20123.0,16639.2,13092.8,116619.4,39093.2,5252.6,30143.0,54698.4,53227.0,15838.9,15194.0,0.0,815109.7,
367,0.285,23843.6,33793.9,41731.2,41433.8,39847.2,49181.1,45003.7,28006.9,41293.9,53683.7,23086.4,188784.2,62499.3,13911.0,38189.1,125065.4,183757.6,39150.3,38788.6,0.0,967100.8,
368,0.298,7430.5,8080.7,15175.8,18424.6,8066.4,11894.7,14555.7,9779.5,11666.0,17956.7,13607.6,38141.6,19864.0,8175.0,20207.1,34823.7,16743.5,14986.5,19105.9,0.0,851723.4,
369,0.347,14927.2,18046.9,24223.4,24267.3,14847.1,16067.4,19675.2,16624.2,18259.0,21172.9,16574.2,57777.0,36243.2,14088.2,26251.1,26865.5,30342.5,24642.5,22099.4,0.0,967682.1,
370,0.477,16981.2,26610.0,31853.0,33020.1,22873.1,29871.0,29921.2,18052.3,26272.5,45962.9,21770.4,36035.1,44836.6,13949.7,13266.2,42814.6,92756.3,29475.8,32813.4,0.0,817682.2,
371,0.325,10522.8,17110.3,28069.8,33344.8,19566.1,26314.2,32913.5,20911.5,28473.1,30566.4,14436.4,91263.5,47805.5,10672.7,25874.8,45378.4,56500.2,36195.8,34191.8,0.0,845622.0,
372,0.254,6184.9,6051.6,9166.8,11145.1,6965.0,8164.2,8817.4,9094.5,12581.5,10090.9,9168.9,18176.2,12020.2,8284.5,15166.6,17323.3,12740.4,11554.1,16259.9,0.0,943298.8,
373,0.258,13086.4,24621.1,33365.5,39196.9,19044.6,24888.0,31989.4,16221.6,34015.1,45363.5,30722.4,59075.0,47953.9,24871.7,27600.0,34521.5,55718.3,40450.7,39372.9,0.0,879872.8,
374,0.23,10568.9,13944.6,20055.9,22789.5,14313.5,19664.1,21933.8,8661.2,15583.2,19765.9,18164.0,15953.2,18906.2,10476.8,11683.4,27024.1,39779.2,19040.8,22211.3,0.0,789898.8,
375,0.226,9952.3,19831.1,23313.6,22016.0,21411.1,28814.7,28256.3,14193.1,21547.1,17989.9,55157.9,86174.7,20987.8,10006.2,50280.9,165490.0,73392.6,18872.0,15677.4,0.0,775301.9,
376,0.203,10046.1,18284.4,23087.1,20213.1,17937.3,23822.0,24521.0,12394.5,23938.2,15145.9,56108.2,174741.4,23181.5,8575.5,73002.0,261500.2,54625.8,19646.2,14834.3,0.0,724521.5,
377,0.2,11417.5,13332.2,14867.3,16288.7,14148.1,14517.3,14997.8,15870.6,25995.9,24533.0,22765.1,93506.7,34215.5,16143.0,37252.1,85934.4,57920.1,19261.8,17036.0,0.0,833929.0,
378,0.249,11116.8,18830.3,18783.4,16106.1,19765.4,25847.9,22883.4,20629.6,44057.7,23847.2,15273.8,122267.2,50123.5,9465.1,34982.5,78918.2,63437.0,29699.1,20412.4,0.0,840714.5,
379,0.236,18525.7,19137.1,20885.8,18561.6,18550.3,19872.8,20000.2,13193.9,20945.7,25110.9,11569.3,61831.4,32096.6,18620.4,15405.0,23477.0,40594.6,22081.9,29033.9,0.0,759425.7,
380,0.235,15103.7,18021.4,20486.4,22697.0,20194.5,23330.0,25658.1,21537.4,27698.9,18706.2,13528.0,27024.9,21545.1,13602.7,20128.8,17907.0,18321.4,24797.6,22723.8,0.0,797878.2,
381,0.176,9362.3,9951.8,17593.7,19503.6,11729.8,15009.0,17843.2,10841.8,12516.5,20470.8,7673.1,6056.3,17272.3,9483.5,7279.6,5241.5,11568.2,16773.7,23285.1,0.0,727659.5,
382,0.187,11631.2,12688.2,12996.1,11991.7,13031.8,15505.2,13961.5,14113.0,16581.0,13631.4,13775.2,20894.1,15948.7,13437.3,16042.5,16304.5,18693.6,13996.0,15035.1,0.0,824151.6,
383,0.19,7551.0,12427.0,14560.3,15623.4,13114.9,16067.6,16504.6,10079.8,16762.5,16141.8,8045.5,17514.1,15731.3,7707.8,9046.0,14696.4,12390.0,16911.0,18637.2,0.0,810534.5,
384,0.208,9458.8,10295.3,13340.8,14074.0,12325.9,15530.8,14076.2,12165.5,22638.0,14333.8,14527.1,29099.8,16893.7,9165.5,20442.4,43842.5,16016.6,18095.8,13469.3,0.0,835196.7,
385,0.202,6935.3,10890.8,9607.6,7483.3,13663.5,14514.7,12708.6,12918.7,13376.5,10624.8,18772.0,22748.0,13305.9,10740.2,16176.7,29956.0,20064.1,11284.7,9373.3,0.0,841310.9,
386,0.319,5575.9,6244.9,8433.1,12761.6,6673.9,8196.7,10277.6,6271.9,8470.7,14618.9,15584.8,37338.9,16843.2,9900.6,17046.3,53694.0,22817.7,11429.5,16817.5,0.0,822411.6,
387,0.247,18809.9,21239.2,20847.9,20835.6,27620.6,26693.9,25406.8,28388.5,34429.6,31911.4,17974.7,50513.7,37141.6,18988.5,26695.8,41684.0,41308.1,31582.1,28334.8,0.0,840137.0,
388,0.19,6859.8,5981.6,7016.1,5894.9,7193.8,6660.1,6214.6,7504.2,7446.8,6926.1,7858.7,8303.5,6976.5,7489.2,7942.7,8078.5,6865.0,6494.4,7243.4,0.0,802792.7,
389,0.212,8869.3,12801.2,14075.7,9407.0,11492.8,15433.5,13856.9,10822.5,15063.7,15031.5,10961.1,21897.7,17620.3,8015.6,15619.6,15054.4,19178.2,13103.8,14740.5,0.0,750550.8,
390,0.212,10235.1,9981.0,11118.9,10339.9,9230.5,11108.7,10920.2,9271.2,10174.8,12396.2,8263.9,15569.5,11751.7,8756.9,9947.5,12250.7,18507.4,10078.5,12913.7,0.0,752650.3,
391,0.472,16996.1,18618.8,19655.7,23896.9,21824.0,22637.0,23574.8,24024.8,30888.5,25053.9,16181.8,30585.4,28919.1,20099.1,22137.8,16414.3,29804.7,27504.3,22552.9,0.0,755866.9,
392,0.247,14629.1,19654.7,19654.7,13371.6,17264.1,17622.2,15736.4,15876.8,16782.9,12638.4,11412.0,22893.2,14799.7,13538.6,18046.8,18733.6,17548.8,14426.2,10839.7,0.0,938041.3,
393,0.435,17059.7,21349.6,25183.7,34150.3,24365.9,29759.4,30827.5,21525.7,37281.9,52707.9,23860.8,159111.6,91137.8,18046.8,33289.9,61862.0,169518.6,37612.8,44720.9,0.0,828357.8,
394,0.183,9121.5,10361.8,9912.8,11901.6,11680.5,11714.6,11990.0,9508.1,16300.0,17097.5,9520.2,67069.6,28944.1,5331.5,16388.7,26689.4,29648.4,16389.6,15381.5,0.0,814580.7,
395,0.226,16254.6,18783.1,17403.0,14135.0,20210.8,19793.5,17947.3,16190.9,18152.8,9923.3,22369.8,93638.8,26345.8,13358.0,26232.0,90076.4,61145.7,13439.3,10674.0,0.0,749148.8,
396,0.173,6260.7,6261.6,8836.7,11584.3,8212.8,9886.2,11408.9,10742.6,15574.0,20036.7,26112.6,173657.5,52925.1,7962.8,45226.3,103414.4,75923.8,19141.5,16321.6,0.0,832805.3,
397,0.237,15689.0,21538.3,23381.2,20551.5,20017.5,21189.2,20359.2,21551.6,26830.2,24171.5,18260.9,98568.6,44752.4,18455.5,31799.7,39493.5,41953.2,25606.8,23830.4,0.0,802735.1,Peaceful body breathing with particles streaming through an opalescent space.
398,0.956,20260.3,18536.4,22267.5,18034.7,17048.7,19291.0,19371.2,18211.2,13840.7,11108.5,15083.1,18728.4,14459.4,14589.7,17021.5,18225.9,12823.6,15179.1,10941.5,0.0,780270.9,
399,0.311,14650.1,18435.7,20077.4,21909.4,18097.5,20281.4,22073.5,13380.5,21955.5,33308.8,18484.4,39363.2,30292.3,10049.6,21229.8,35762.3,39897.6,24580.8,30810.5,0.0,784953.6,
400,0.252,13173.4,21281.9,25725.7,31416.5,19333.3,22979.4,26481.7,13282.0,17052.0,18384.2,10323.0,17618.6,22801.6,9364.1,12088.1,20867.5,23116.1,24989.8,16799.8,0.0,968203.9,
401,0.249,19325.9,22302.6,23221.6,25413.6,20731.7,22240.2,22976.0,18625.1,24480.8,19587.9,14784.7,87965.4,28352.1,15034.9,30491.5,44423.5,25135.9,22755.3,19891.8,0.0,1018317.2,
402,0.245,9773.8,16504.6,19071.8,16063.2,14740.8,17937.6,18303.1,16560.9,22819.5,15011.7,9218.8,24971.8,20954.6,11580.7,14149.8,13394.2,19027.6,18746.9,21336.9,0.0,1051077.9,
403,0.358,8565.1,6707.1,6324.1,7703.5,10838.1,9101.9,7600.8,14295.6,8958.4,7150.7,9372.9,10763.9,7731.9,9712.6,9596.3,11154.7,8775.4,9562.3,5999.2,0.0,1112753.5,
404,0.505,15209.5,19210.5,19631.6,29059.2,19376.8,17568.2,17663.8,16104.6,17434.1,27068.5,13543.8,18310.7,19379.6,11682.0,17721.2,19936.7,18489.8,18136.3,36563.7,0.0,1084801.1,
405,0.347,13443.4,12951.3,14758.7,14684.5,12105.5,15627.8,17791.0,15847.0,22412.7,18766.1,16886.1,34620.3,24065.3,16878.6,17236.4,22236.9,18192.1,22168.4,14606.6,0.0,1122213.2,
406,0.229,14214.3,15933.2,15985.9,17604.5,17312.5,17022.4,18596.5,15986.7,20739.8,23886.5,17649.6,63418.0,22700.1,13920.4,29010.6,46420.3,24207.0,18901.8,17243.6,0.0,1340487.8,
407,0.26,12551.0,15355.4,17387.0,19446.0,17820.4,20520.4,20635.1,19168.0,36731.1,31480.4,21714.3,171797.4,62041.3,13284.2,38123.6,58980.2,81920.1,29114.3,25253.6,0.0,1262830.4,
408,0.29,22421.8,23294.7,26717.2,27566.5,25667.0,25130.2,26851.8,26102.0,31708.5,32858.3,25054.6,33920.4,29114.6,21058.1,27116.2,33452.8,35359.5,29090.7,37583.1,0.0,1272964.5,
409,0.195,12337.3,15660.3,18451.5,20793.6,13642.9,15718.2,16925.0,17770.3,20901.0,32483.7,19607.6,40148.1,36980.0,17342.7,25334.5,23973.3,37973.7,25010.5,27144.3,0.0,1256415.6,
410,0.233,7247.3,10416.8,14809.3,11071.1,9984.5,12680.1,10986.5,9284.4,12775.0,11816.5,10549.0,17436.9,13840.5,8047.0,13204.8,19242.5,13257.4,11460.1,15245.7,0.0,1152000.7,
411,0.227,7045.1,9987.1,15255.2,18152.3,10357.9,12862.5,15848.0,9835.3,22887.9,30377.5,12023.0,27388.7,25679.4,8860.6,15191.7,25404.8,25351.7,25306.1,31534.2,0.0,1257342.2,
412,0.494,10639.1,10852.1,12512.9,12516.2,11607.7,14413.2,11736.6,10292.6,13139.0,12966.8,20684.5,19222.1,14597.3,17131.6,13767.2,24829.1,17814.5,12071.1,14399.5,0.0,1217525.2,
413,0.217,13390.9,15745.4,18722.7,16278.5,16408.8,19457.6,19637.3,15847.2,23372.6,21910.7,15386.9,21236.5,22033.1,14084.1,17308.7,19680.2,23742.5,20273.8,23328.6,0.0,1030093.7,
414,0.234,8621.9,13198.1,18452.6,20904.7,12629.4,19158.6,20322.3,10494.1,20886.0,21444.8,10416.6,16083.2,19147.0,11346.2,9566.3,12638.5,18887.5,18053.3,22421.0,0.0,1157602.8,
415,0.21,11281.4,13247.2,18915.6,16118.6,14456.5,16287.6,17035.1,15258.0,14644.9,17732.5,17853.0,17703.1,14928.5,14991.4,17716.2,22763.1,19329.5,14149.8,18694.1,0.0,1133435.2,
416,114.963,3758847.3,99098.2,117214.0,1382073.7,52492.6,28471.7,29461.1,23006.0,22945.4,21794.9,19234.9,19470.0,20966.7,44721.3,13842.1,15636.5,21794.1,29463.2,41939.5,0.0,1080485.7,
417,88.595,380584.3,64896.1,66601.0,98282.3,36704.9,24448.3,26260.1,14612.4,23844.7,10373.8,9855.0,16306.6,13521.3,8989.2,10586.8,19901.1,15285.5,16412.7,13299.5,0.0,1145665.3,
418,0.3,10305.1,11727.0,14712.9,17525.4,10941.4,13142.6,16371.8,14588.1,22641.5,32081.0,23874.7,99474.4,46391.4,12100.5,31783.0,83300.0,122999.6,21055.3,20386.8,0.0,1064724.8,
419,0.394,10677.8,10241.0,8680.7,9504.0,9905.0,9936.6,9000.7,10028.4,13476.1,12765.2,11274.5,51525.9,21502.9,9142.6,16138.7,21134.0,33432.9,10336.0,11277.2,0.0,1155016.8,
420,0.238,21932.0,23661.1,19247.2,23256.2,23220.7,20523.5,19695.6,22637.1,23088.9,31836.7,25664.9,66410.5,35367.8,22484.9,33428.9,53954.8,44591.0,23309.8,26989.3,0.0,1230212.0,
421,0.33,10365.9,12453.2,22677.7,22232.5,14154.6,18589.5,22916.5,18649.3,26047.1,34478.4,12241.0,120735.9,68893.7,10505.7,29308.9,43948.0,110532.3,29478.9,28075.0,0.0,1182446.7,
422,0.223,7933.2,9390.4,11978.6,16351.6,12664.0,14529.3,14604.9,16466.1,19116.0,26093.0,13395.7,29658.9,28821.1,12769.9,20961.1,16685.6,23106.4,20209.1,27355.1,0.0,1078522.2,
423,0.23,2605.5,3179.2,5875.3,6850.0,5090.7,5339.9,4963.1,5674.0,6711.1,7254.3,6286.7,8833.6,7383.9,4555.4,7905.5,10864.1,11061.5,4838.2,6009.4,0.0,895736.5,
424,0.203,4955.1,8911.1,9890.6,8007.9,10882.6,12114.9,11601.5,6384.4,8769.4,10222.4,7463.9,26119.9,10319.7,4892.9,8888.6,15807.2,18074.6,8710.7,9645.1,0.0,948865.2,
425,0.284,23662.7,27441.5,27961.6,30989.1,26773.8,28678.1,26720.4,27368.6,28524.9,51530.5,66533.4,120960.8,67996.6,40041.7,57507.8,134877.1,154168.6,29643.9,36214.9,0.0,1025361.7,
426,0.375,24601.6,26559.6,28651.9,21446.4,24440.3,26637.9,23900.7,19084.0,20038.4,24491.9,31100.8,83363.6,35192.7,19636.8,31609.5,78003.7,127720.2,17042.1,15255.8,0.0,1118678.7,
427,0.311,26575.6,32643.7,33267.1,30663.8,31084.5,32928.9,33434.0,31025.8,50730.4,38357.6,27359.3,260373.9,93335.4,18615.6,55282.0,104283.5,129187.1,39979.0,27239.3,0.0,1066457.2,
428,0.18,9086.3,14646.0,16316.2,16611.4,13674.1,18853.5,18033.9,8401.6,24191.7,23793.5,19215.8,138520.4,57953.8,8307.4,25156.3,73287.8,100924.8,18058.6,15956.4,0.0,1082215.7,
429,0.229,7213.0,10704.0,14322.4,13631.3,10966.7,14408.6,15785.3,11813.6,17071.5,20938.4,9308.5,102873.3,44340.6,7539.7,14704.2,38997.4,76790.4,16493.3,14938.8,0.0,1075724.4,
430,0.175,8715.9,13908.5,18922.3,22695.7,14995.7,18486.6,21737.9,12712.0,22173.1,34205.6,15704.3,152701.4,76670.1,9544.9,35976.6,83985.3,133231.4,27281.3,22954.3,0.0,1127670.2,
431,0.225,18659.2,21111.4,22793.0,25276.3,23934.7,26369.2,27337.3,32862.5,50333.3,31728.5,22524.8,169310.1,84829.1,22089.2,50924.5,40143.5,62653.7,42814.9,33749.2,0.0,1217453.8,
432,0.26,9387.6,15677.9,20570.9,21901.4,15239.9,17601.8,20321.2,14966.2,23954.8,34641.0,8746.9,51223.8,41139.9,7749.6,17612.5,14546.2,39750.5,24626.9,33751.8,0.0,1077941.5,
433,0.205,10050.4,12493.6,13674.5,14435.6,12142.7,14401.9,14327.0,10541.7,18586.7,17462.2,10581.0,65015.8,34334.0,11380.6,14050.4,18238.1,26673.2,19778.7,17991.4,0.0,1117119.9,
434,0.21,23365.2,29639.7,31227.3,25341.4,28219.4,33843.0,33547.6,25734.2,38427.2,43036.5,29629.9,87455.7,59727.7,16878.3,49537.8,113491.6,120435.8,32570.8,29665.7,0.0,1200397.4,
435,0.391,27067.1,34653.6,33913.1,30933.6,38218.6,38579.2,35176.5,36525.1,45078.2,59593.4,48899.5,213507.4,92215.9,23129.8,68682.9,177153.6,242672.5,32171.8,25228.0,0.0,934567.9,that was no self impernance door with purple particle streaming into my eyes
436,0.3,15545.4,27090.3,31319.7,25047.0,27637.3,33042.9,33271.6,19548.4,33702.7,18888.2,40873.9,197267.8,53716.8,10415.2,58955.0,180899.1,141735.8,23174.8,17078.5,0.0,971760.9,
437,0.285,7527.8,10682.3,14463.3,16452.4,12251.2,18905.2,19724.0,15264.3,38183.1,43537.7,23920.6,169185.9,86113.1,11337.8,37265.9,56945.5,126530.6,33930.4,28988.8,0.0,1000380.8,
438,0.271,10514.5,17500.0,30514.7,34922.8,20734.5,30763.9,37493.2,18398.3,44883.5,53654.5,11250.2,107835.1,92301.2,9767.9,16815.5,14326.8,149667.7,50245.9,39600.5,0.0,903804.9,
439,0.33,9425.6,16880.8,21385.3,14676.1,16090.1,18652.1,19705.5,13247.8,24786.4,12820.7,21324.8,161486.7,42426.6,6405.2,43881.8,81043.6,60164.5,19412.5,12227.0,0.0,868626.7,
440,0.281,16613.9,24676.8,28838.2,26688.4,25864.2,30266.9,26563.8,26398.7,34409.4,25748.5,14913.6,61074.4,31869.0,13947.7,32874.7,52124.9,35506.2,21146.6,24627.1,0.0,958412.5,
441,0.185,9674.0,10122.0,8289.9,6320.4,11459.1,10724.7,8833.5,16916.8,17974.7,7920.6,26893.7,110600.6,29616.3,13931.7,46545.5,80418.2,45189.8,9557.9,7201.4,0.0,991069.8,
442,0.208,7269.9,9680.2,8679.8,9539.1,9585.8,13420.2,11837.7,13205.3,20268.7,14407.3,19048.4,112071.5,23786.9,9240.3,34475.4,61836.7,48083.9,12759.7,11210.3,0.0,1033885.8,
443,0.274,9718.4,11361.3,11816.7,11590.7,13215.3,13224.9,13729.1,13787.2,24481.9,17203.0,18159.6,105863.2,37786.1,6941.1,22350.6,58024.1,58444.4,14803.1,14601.1,0.0,1226762.2,
444,0.209,8800.1,11160.4,14812.0,16179.1,13342.1,16587.2,16776.7,17052.0,29616.6,21527.2,29325.2,101655.6,43318.0,11436.4,34453.9,83436.5,55199.3,20829.7,15048.5,0.0,1255256.0,
445,0.191,3986.7,6654.2,7880.2,9186.5,8400.3,11316.3,11852.1,7305.8,16240.5,18572.5,11551.5,44064.6,19488.3,3658.9,13484.5,35309.3,23172.6,13603.5,14237.0,0.0,1115525.6,
446,0.352,14380.8,14628.6,14717.4,14096.1,15032.5,15462.6,17035.4,21223.6,29944.8,25201.1,25926.7,133909.2,45312.3,17786.2,40802.7,68164.5,85604.1,22154.4,17014.2,0.0,953104.3,
447,0.178,7116.1,11243.3,14181.7,12408.1,9075.1,12616.5,12650.1,11339.7,17036.5,14174.1,38171.1,139322.8,20459.9,9465.5,55646.1,147304.2,53926.9,11416.7,12818.2,0.0,1118858.6,
448,0.195,11292.6,15009.9,13405.7,16550.7,14149.1,15409.0,17058.0,10202.9,25272.6,15145.0,20746.2,176858.0,46838.0,6911.0,37110.5,99313.7,60803.2,21386.2,16497.8,0.0,1120829.5,
449,0.267,12593.7,15032.6,20731.6,29714.7,15116.8,16711.6,21140.2,12178.0,17388.9,34120.9,7589.5,35196.8,30319.9,8960.1,11452.4,17190.6,32399.4,24986.6,37170.5,0.0,1019180.4,
450,0.193,7823.2,6475.7,8500.2,11808.8,11067.6,13460.8,13264.5,12221.8,14359.4,14801.5,18983.6,19692.6,14041.4,13551.5,16170.4,24023.2,21772.2,13391.6,18124.7,0.0,1045141.5,
451,13.395,10131.9,22401.0,24787.9,16673.9,22376.0,27116.6,26977.1,21548.3,35943.9,15357.1,29874.0,77723.2,35191.2,12976.9,31739.9,110353.3,63923.2,26550.9,13478.7,0.0,913007.6,
452,2.237,15227.8,23040.7,26665.6,28839.2,21965.0,26889.6,29483.1,12424.6,23737.7,23092.2,13719.4,97117.6,40903.0,9915.8,18377.1,61110.9,68621.4,25887.1,20821.1,0.0,856462.7,
453,0.317,11848.9,13637.9,12111.5,13272.5,13432.4,12467.5,10954.9,14389.0,11993.9,27957.9,22523.5,49766.1,37874.0,12712.3,20009.2,45038.0,119214.4,9851.8,13607.6,0.0,936699.4,
454,0.229,13023.6,20461.6,24644.9,32427.6,17446.8,25058.9,28015.1,10716.4,28016.9,31823.5,17213.1,82885.0,60819.2,9717.6,24205.8,43782.6,79968.6,35977.2,33768.6,0.0,856436.5,
455,0.255,9504.4,11438.1,13613.7,10701.3,13072.8,13446.0,12814.5,16308.3,22819.7,14078.0,26914.1,153274.9,38103.8,10079.5,56594.2,125433.8,73380.9,10899.3,8508.8,0.0,783885.7,
456,0.262,12991.9,16164.4,16969.0,16997.3,15192.8,15852.8,17876.2,16711.8,21558.8,19932.9,27892.2,105460.0,42864.5,16671.1,45273.1,73666.1,64742.8,20483.6,20657.2,0.0,789874.7,
457,0.251,15885.1,18368.2,22306.2,17996.9,23039.7,27150.2,25880.0,30932.9,39600.2,37562.7,42969.2,125707.7,58062.1,21775.2,61981.6,97676.6,134654.9,24906.5,19978.3,0.0,875645.2,
458,0.332,18233.7,25599.2,23702.0,21266.0,24326.6,28368.4,27025.9,17316.5,31986.7,16464.9,13308.3,102607.8,30665.2,11082.3,27039.9,69101.2,50076.3,25016.8,19275.5,0.0,820856.7,
459,0.166,6367.9,11441.3,12608.5,9475.5,8994.5,10255.5,9633.3,5214.8,6763.2,9501.1,22985.9,75645.2,16157.6,5847.5,24708.0,98148.3,23315.1,7565.7,13452.0,0.0,748189.3,
460,0.163,13555.6,18680.5,25001.3,26522.9,20781.6,25230.1,27888.9,16723.0,32255.6,33210.1,19086.4,100910.1,31677.4,7912.2,32707.0,82739.2,38206.1,29962.1,34381.7,0.0,758646.4,
461,0.235,11258.4,18032.7,20741.6,22818.7,17282.8,20506.4,22744.8,13903.3,23243.1,15357.8,21261.7,96255.8,27330.2,8182.6,26153.5,77061.7,41871.4,22081.2,13417.1,0.0,793061.0,
462,0.295,29258.2,36158.4,39389.9,35009.6,35656.7,39211.6,38816.1,31627.2,41716.3,50709.8,39032.9,199636.7,83352.5,23672.1,61118.5,149471.9,225037.3,33213.6,36405.7,0.0,667649.7,
463,0.215,9732.8,15798.8,19766.1,19825.1,19105.8,22020.0,23953.5,12216.9,28991.5,29166.7,13512.9,125754.9,53243.6,6981.6,21744.4,57449.0,113573.3,25114.7,26177.8,0.0,704579.9,
464,0.273,16709.6,26503.2,31877.5,28974.8,27166.2,34287.1,34051.6,17707.1,41451.5,17065.5,28728.0,162991.9,41695.8,6285.6,42460.8,128312.0,66057.9,33410.0,19854.5,0.0,818102.5,strong afterglow on a breathing body
465,0.247,13153.6,18690.7,23519.0,22289.3,20772.5,24371.9,27010.2,17512.7,35360.8,18421.2,21821.4,93169.0,35870.9,12757.2,25837.0,70173.8,50934.2,30572.7,17958.0,0.0,722793.8,
466,0.321,15940.9,25163.9,25374.7,21614.4,26319.9,29838.5,25094.6,18763.4,33781.0,27758.8,27221.8,123696.9,43490.2,11911.6,35029.5,104739.6,99676.2,22973.4,21363.4,0.0,772640.5,
467,0.232,11072.2,16001.3,18938.1,24118.0,18228.8,22847.6,24631.8,18791.3,32866.2,16179.1,30645.7,128011.1,29512.4,13805.0,51318.8,123060.3,52210.8,23615.8,20831.6,0.0,753828.3,
468,2.779,7987.9,15014.5,17797.3,24145.6,12602.0,15480.4,18124.1,13330.4,19413.3,17796.2,17499.5,116885.1,25085.4,8235.1,37330.5,84786.3,32111.4,18836.1,22528.7,0.0,739366.6,
469,0.205,10770.5,14554.8,13497.0,11934.7,12513.1,13631.8,12173.1,9824.8,11735.6,38378.7,24890.1,115326.7,50435.4,8083.9,35233.7,149083.9,140294.6,12198.1,15792.0,0.0,703736.4,
470,0.321,17071.2,27950.7,33884.9,35561.7,24902.7,33099.4,34677.5,22606.5,32137.6,50169.7,35059.8,97833.8,60131.2,19032.4,41453.9,93298.1,102441.4,37170.4,47629.7,0.0,888992.0,
471,0.228,6569.7,9905.7,11384.2,9675.8,9224.0,9815.3,9134.3,8075.0,6531.6,16585.4,25041.3,35449.2,20970.1,11898.8,19835.4,50371.3,71792.8,6256.8,11284.0,0.0,745473.1,
472,0.324,17632.8,25049.1,28897.5,23256.9,28725.8,32569.4,33308.1,27318.2,41235.4,39109.0,31062.9,153381.0,79679.6,18619.0,51092.2,114737.7,207231.1,32127.1,28217.8,0.0,741719.8,
473,0.179,9035.8,11616.6,10516.3,8891.8,11248.0,12954.6,10843.3,11257.7,14268.3,17765.6,19293.7,46570.3,15254.3,12213.9,17181.2,28745.9,19930.7,8633.4,11571.6,0.0,687068.2,
474,0.302,21834.3,25231.4,23673.4,21774.9,27099.5,35252.3,31653.4,25264.5,40215.5,11792.0,22878.3,49926.8,32612.3,19156.0,25570.6,24353.0,25639.8,32034.8,21661.5,0.0,724486.6,
475,0.482,13424.6,20868.7,25111.3,18225.7,21183.3,27530.1,26804.5,16110.1,26571.3,34029.1,15299.7,114966.1,36900.3,16312.1,27711.3,62392.4,96932.5,22278.6,29918.6,0.0,787615.1,
476,0.273,13196.7,14347.2,18583.4,20272.4,18911.9,23922.5,21833.8,17091.5,24698.8,29486.7,22043.7,121789.8,52392.9,15525.6,36530.6,66009.6,101867.7,24098.7,33124.6,0.0,742299.3,
477,0.285,9057.3,13368.4,13289.8,11925.5,13813.1,13930.2,13879.7,13267.5,20591.7,17847.2,21272.0,125438.6,44910.6,9831.2,28208.7,83164.7,74175.3,14749.9,14159.9,0.0,703922.3,
478,0.194,9476.6,14314.8,17590.3,18098.0,15690.0,18616.7,20543.2,14549.0,28387.5,23510.3,15328.2,75373.0,38430.5,9507.0,26316.7,54165.5,76345.7,22308.0,19449.2,0.0,691852.1,
479,0.245,7314.4,12638.6,14351.1,11036.0,16917.5,20455.3,18003.4,13800.6,15488.7,41638.5,25626.5,35903.8,41801.7,17405.5,21531.5,36466.0,80706.0,11996.5,23331.1,0.0,652391.5,
480,0.177,6048.6,6573.8,7425.1,9006.4,7430.5,8439.8,8752.1,8747.3,13747.7,23059.8,13103.9,31072.5,23197.8,7313.7,13390.5,36124.4,60274.5,11533.5,16079.1,0.0,661420.4,
481,0.229,13476.3,17033.5,16412.4,17367.2,15162.6,15787.4,17402.5,14465.1,21918.3,27917.6,10656.2,79416.6,42188.4,8191.5,16581.5,44882.2,63682.2,23116.7,19133.3,0.0,789340.1,
482,0.36,17522.2,22055.6,26270.1,21338.8,19680.5,23785.2,25828.0,19230.3,27816.9,23661.7,24753.2,60716.4,33949.6,14004.3,26152.8,54285.0,33275.1,27947.1,22178.7,0.0,752967.4,
483,0.453,17242.6,15130.0,15307.2,20670.5,14863.2,14066.7,14976.4,17317.1,15812.5,33536.3,19777.5,81767.9,41185.1,20273.7,26297.3,58924.3,57879.0,18391.4,28001.9,0.0,753558.0,
484,0.5,14736.8,14419.7,16457.4,13326.4,15842.6,16168.0,15418.7,12437.8,16771.2,45377.5,24660.2,131697.9,68670.0,12961.2,34052.7,101446.4,201114.6,16335.6,20029.5,0.0,754899.6,
485,0.245,14750.3,21296.8,18039.3,14154.4,21447.1,22068.7,19877.0,13632.8,27850.9,34147.1,24250.6,155715.0,82883.6,10568.9,36805.8,82774.5,113479.1,23340.2,18298.9,0.0,694044.9,
486,0.221,16064.5,25258.3,24531.0,19662.0,26609.7,31555.5,25251.5,16778.6,30665.6,29478.2,17668.5,170785.1,54445.2,8907.2,36423.1,95329.4,63866.8,23208.1,23710.1,0.0,817043.4,
487,0.214,10855.5,14442.0,16900.4,20627.2,13605.3,19310.2,21177.0,11044.0,17025.3,21707.5,21065.5,123742.8,29813.8,10522.3,36227.2,84673.9,47168.2,19244.7,21612.2,0.0,705299.8,
488,0.232,16312.7,26343.4,34482.8,36326.9,27435.1,34945.4,37266.4,20437.1,29157.3,28056.8,14902.7,95292.1,43337.5,10207.8,31158.5,53126.3,27436.8,33910.0,39508.0,0.0,746941.4,
489,0.21,17113.1,21633.3,28904.7,29351.8,23152.8,28328.7,29420.0,17856.9,25806.7,46050.1,21956.2,37020.4,39147.5,10971.6,24949.2,71252.9,68338.6,26831.2,33088.0,0.0,838195.7,
490,0.48,15525.3,23374.2,31417.1,30925.6,22314.1,30197.8,30292.9,19044.4,25884.0,21588.0,44302.5,91064.9,30997.0,13390.1,49505.8,152443.0,35329.2,28221.1,27630.4,0.0,963968.0,undulating peaceful blissful body
491,0.289,16565.4,24569.9,25655.5,24321.1,27678.3,31111.0,29122.1,30235.1,44003.1,15811.2,45743.5,223568.7,60920.8,21014.2,90441.1,188825.0,87531.1,32275.4,19706.8,0.0,1035568.9,
492,0.312,22966.7,31010.5,32432.3,24389.9,33343.9,39062.8,34734.3,23235.4,30946.1,20830.1,27240.7,88426.2,26938.0,11882.8,32806.5,125860.5,86162.0,23990.2,15727.1,0.0,859093.6,
493,0.208,11095.2,10130.8,12133.9,13390.6,12221.4,14353.3,13283.7,14175.5,23142.5,11790.2,21421.0,84117.9,30421.6,12842.3,38178.2,65708.6,32649.3,16701.8,18109.8,0.0,1001203.8,
494,0.193,18608.4,18741.1,21061.6,24364.8,19222.8,19908.2,21657.1,19509.7,20073.6,20469.1,32826.6,120176.8,56900.1,17143.3,44068.6,129791.3,111351.8,21699.8,17349.3,0.0,882248.5,
495,0.221,11446.6,19296.5,15847.8,16124.2,15777.7,16801.7,15510.8,10886.1,14301.0,28809.8,33829.2,99279.5,34483.0,11379.3,36770.8,109638.0,89985.9,10456.7,17220.2,0.0,973405.4,
496,0.184,12350.1,17254.8,19670.3,15169.5,18097.4,22960.2,19790.2,10485.7,19851.0,29131.3,6260.6,73408.1,32550.5,7828.2,10770.5,32989.7,85108.8,14968.6,17167.3,0.0,1048205.1,
497,0.212,15427.8,23516.5,24586.3,20999.9,25801.7,31623.6,26620.7,24789.6,36975.2,21450.0,32744.1,84152.6,29726.2,13781.4,44888.9,102845.8,47557.6,23522.4,21242.5,0.0,913962.4,
498,0.212,7948.7,11942.8,17013.7,19163.2,12857.5,15279.6,15798.9,12434.4,14313.6,41704.9,17906.1,30074.2,32294.9,13717.1,18807.5,32855.5,58397.7,17903.7,32617.6,0.0,987942.8,
499,0.218,17691.7,24225.0,29866.4,33575.3,25963.6,30565.6,30676.8,25770.8,36204.8,22231.4,27617.3,142770.1,42787.3,17498.4,45771.9,60787.3,57879.5,29546.6,31729.9,0.0,920937.3,
500,0.31,10499.8,11823.6,13664.9,16332.2,13057.9,13347.6,13042.4,15771.7,19697.1,38643.7,24487.8,116450.5,71256.4,14171.7,37733.4,66517.5,109065.0,22157.7,24435.3,0.0,1135802.5,
501,0.235,21971.4,26826.3,31821.7,37329.0,33843.2,37421.5,35880.0,32421.9,44297.3,41590.8,28514.4,49189.1,44232.3,24876.5,31169.2,38408.1,49345.2,43309.5,42496.9,0.0,890239.7,
502,0.212,12851.7,12895.0,17989.7,18225.9,14493.6,18124.6,17912.7,16287.8,23743.6,37908.8,22234.6,47923.7,50951.5,14196.6,32896.5,50692.3,107785.2,23131.4,22450.8,0.0,948684.0,
503,0.242,12108.0,17835.8,19047.4,16549.4,18765.0,23342.8,22082.4,9088.7,14735.3,21257.5,17416.7,42130.8,31200.4,13516.7,9473.4,35820.9,61240.2,16156.0,12495.0,0.0,982373.0,
504,0.208,12476.3,19906.3,22664.9,23599.1,22952.5,28378.4,27368.3,21954.9,38412.0,41884.3,18807.3,41139.2,44483.2,10584.8,25597.2,34210.7,70309.9,31471.6,28966.9,0.0,889583.5,
505,0.262,12984.7,21501.5,33531.5,28386.2,28226.2,35781.4,38862.3,20368.2,53085.8,20571.3,12984.3,94613.1,57309.8,7452.0,24573.6,22820.9,32538.1,38467.6,25134.4,0.0,918795.5,
506,0.282,20663.9,30965.3,38233.1,34237.1,32720.7,40938.7,42126.4,29467.3,39647.6,69645.1,13351.5,55793.6,75431.3,13860.6,25690.4,32253.2,75970.4,50061.0,67034.8,0.0,913434.6,
507,0.217,10091.7,12100.8,20181.7,23941.3,13779.2,16933.2,18914.2,14424.0,21183.5,39349.8,17748.8,51498.5,29642.2,14614.4,24137.3,41011.4,50747.1,20271.9,32777.1,0.0,849424.2,
508,0.166,7395.6,8729.8,9345.6,7763.0,9866.7,11481.8,9294.3,13961.9,15666.9,27796.9,17304.5,114967.0,49238.6,10675.5,33387.2,75409.5,131303.8,11530.2,8562.2,0.0,830561.3,
509,0.26,15578.1,21553.5,26303.4,24727.9,19570.2,23078.4,24920.0,20495.7,28325.4,36237.4,35382.7,134483.1,43286.5,16866.8,53701.3,98645.9,56580.4,25033.9,31016.4,0.0,889009.1,
510,0.337,12830.7,24593.2,32317.7,22334.0,23008.1,36895.0,33626.6,14598.1,42137.7,30690.0,29890.3,198815.4,64572.1,13363.3,42058.2,89744.7,106667.9,30067.3,21299.6,0.0,816802.3,
511,0.281,24432.4,32551.7,32277.5,33593.5,36290.4,40771.8,38294.9,40813.9,72213.1,36520.7,35211.8,252543.0,104513.0,21287.3,76492.1,127786.7,121575.4,52382.3,36621.7,0.0,776033.4,
512,0.275,9807.6,12683.0,14969.3,9500.4,14934.5,16933.0,16183.4,11518.0,21667.8,10765.1,16215.2,113941.5,27014.3,11388.9,23572.9,58489.4,30817.8,13820.5,11791.6,0.0,761390.9,
513,0.303,18854.8,19168.3,23623.7,30087.1,23059.0,25370.0,24870.4,26659.6,30075.6,39061.4,38858.8,98241.6,44204.6,22541.0,50798.4,66550.3,65349.5,28431.1,36056.8,0.0,819526.5,
514,0.211,27457.9,41909.2,52479.6,47446.6,35998.8,47816.3,50800.2,23954.4,44391.8,31552.8,35219.5,199468.1,52494.2,24093.1,52743.4,112388.9,59902.7,43430.8,35743.2,0.0,750244.1,
515,0.272,7074.4,13961.9,18335.7,18866.2,14144.9,22041.9,21901.2,12503.1,29138.3,50037.6,19796.6,168740.4,81717.6,5583.8,38067.0,95880.5,106179.5,30519.5,33291.6,0.0,724692.2,
516,0.191,9784.8,13187.2,14144.8,13465.6,10497.3,11819.2,12150.9,8587.4,15478.5,27410.2,13858.7,106395.4,68462.5,8327.2,16208.4,40065.8,99364.1,16024.5,12460.4,0.0,700395.3,
517,0.222,14525.1,23815.8,29728.3,32484.0,22510.0,27225.5,29794.2,20260.9,28017.7,33605.5,42983.0,135280.3,40283.0,19859.8,55693.8,113435.6,65177.8,27601.4,28614.5,0.0,764176.9,
518,0.275,11290.8,11980.5,16227.7,14544.6,15192.0,17282.3,17107.4,12802.2,17027.4,24815.7,9439.4,45300.1,19334.5,10927.2,13965.2,22729.7,34852.3,16251.3,15813.8,0.0,881123.1,silent equanimous breathing body
519,0.332,17278.7,27067.0,28438.3,20021.3,24769.7,23100.7,22444.8,19924.6,21895.1,18894.7,24919.0,91459.7,45526.0,16976.2,30358.4,41886.4,75486.9,17386.6,14932.3,0.0,1010809.5,
520,0.277,13758.4,18183.0,20452.6,18799.6,16416.6,22947.1,20478.7,12888.3,13382.4,32723.8,26612.7,84542.6,53116.3,12312.4,31648.8,101552.8,155006.2,15953.0,13860.6,0.0,874296.9,
521,0.405,20340.9,25140.5,26975.5,28945.3,26740.8,29394.7,28557.0,23638.5,34569.8,47247.7,26649.0,117569.5,67362.2,16935.4,40264.9,86231.3,142516.5,33343.1,35665.6,0.0,928361.2,
522,0.293,7551.9,12656.0,12267.2,13767.7,10637.6,13410.4,13502.1,7976.5,10798.6,16040.7,14526.7,95139.2,25518.1,5581.8,27672.6,51308.2,48264.3,10204.6,13522.5,0.0,1064028.2,
523,0.205,16543.4,18361.8,21588.7,24161.1,26514.3,33970.4,32829.2,35197.8,68702.6,21623.1,44318.4,234388.6,74698.6,20842.7,85542.6,133793.4,72987.6,44617.3,21526.4,0.0,1021368.6,
524,0.193,10907.1,19640.6,27970.7,35171.4,21085.9,28734.8,32658.1,15112.4,36776.9,41361.4,8590.0,71261.9,49061.4,5615.3,18138.2,27048.8,53266.9,34117.6,37047.8,0.0,952757.2,
525,0.261,15452.0,18686.0,22685.7,18905.5,24216.5,31904.3,29410.2,26398.8,41195.6,8782.0,48447.3,179353.1,24680.5,17478.9,79485.7,163850.2,19773.5,25212.7,15513.3,0.0,1044404.3,
526,0.215,13264.0,14946.3,14774.6,12820.4,17425.0,17983.0,16539.9,15369.4,24871.7,16392.4,10414.8,155911.9,59988.3,10349.2,30585.9,77211.6,79434.0,22125.5,13138.2,0.0,888788.6,
527,0.227,12297.1,16051.5,17804.3,17679.5,13618.5,16059.8,15687.6,13616.4,21329.0,35420.2,34758.4,205439.1,86307.7,15367.1,50006.8,110369.6,130989.3,19336.9,22081.7,0.0,912424.7,
528,0.219,20420.8,28019.0,29137.8,19921.3,27838.5,33856.1,27113.6,17962.5,30858.1,34573.6,26489.8,169992.9,71793.9,14848.2,39909.6,110019.7,175684.0,25708.2,25455.9,0.0,730375.7,
529,0.254,16221.1,32941.9,41811.0,31025.8,36770.5,51744.3,49313.4,28251.4,47712.7,39452.9,26931.4,103482.0,52447.3,14377.4,41968.3,71306.9,85376.7,36946.6,30761.5,0.0,893989.2,
530,0.275,13409.7,18444.7,20242.6,18921.7,20880.4,23876.3,20644.2,16006.4,19177.8,24148.7,9997.1,71674.7,43036.9,13788.9,7714.7,8278.3,79561.8,21104.9,25697.5,0.0,838135.7,
531,0.22,9841.6,19483.1,25802.6,25788.0,20517.1,27338.6,26125.7,13935.7,30663.3,28915.7,24358.4,56717.5,36898.0,9975.4,27383.3,52795.1,47003.2,26588.5,26888.2,0.0,877540.6,
532,0.224,15150.7,12657.2,16064.9,13817.0,15319.3,15628.0,13182.6,24798.1,23029.6,26071.8,28140.0,110890.7,32398.0,19466.3,49247.2,73917.6,38712.8,13185.5,18162.7,0.0,949469.3,
533,0.281,7311.6,8421.2,12729.5,17117.8,11541.0,12828.7,14420.6,11785.2,18697.0,24185.1,11146.7,56103.8,25312.0,7130.0,14379.9,26299.2,33467.2,20502.5,24289.3,0.0,750861.7,
534,0.175,7550.2,9382.2,12096.2,15035.7,11520.4,11645.7,11905.4,7361.2,12285.3,34215.8,14727.4,74294.5,53744.5,8549.0,21709.4,49396.0,115211.6,16763.5,18298.2,0.0,704103.9,
535,0.222,17681.4,22438.0,24181.3,21993.7,21447.7,24282.2,23577.0,20892.7,31472.5,26227.7,21696.7,100147.8,46673.9,11803.9,40648.3,82647.5,95838.8,29773.6,26084.2,0.0,695784.2,
536,0.482,25458.2,29695.1,31322.9,36406.6,29693.0,32781.1,37565.4,28106.7,43835.9,54798.4,36179.9,88843.2,70641.9,27116.2,46544.0,74268.1,92691.9,44570.7,44833.4,0.0,798817.9,
537,0.266,13976.3,16051.0,17094.6,16967.5,17970.3,18688.7,17841.2,24063.9,21145.0,28106.5,39204.4,72616.6,30204.8,22267.2,46544.3,88501.2,42063.8,19121.0,22520.9,0.0,751617.1,
538,0.219,11726.1,9938.7,11033.1,12336.6,12017.4,11913.8,11493.1,18278.6,14724.5,36611.8,35403.8,118904.6,40202.9,12669.8,53816.7,107415.4,89860.7,13453.9,22550.5,0.0,717867.2,
539,0.219,12642.8,15694.7,18847.3,18875.9,14010.2,18732.3,19786.0,10093.0,18901.4,18306.9,19841.6,65731.7,25338.9,6642.3,21614.5,50940.1,51013.4,18254.5,22423.2,0.0,712189.4,
540,0.202,8238.2,11703.1,13132.8,16053.6,12173.1,17178.1,16372.6,11481.9,20991.1,20395.6,14652.9,43627.7,24856.2,10367.8,15858.1,28648.9,27629.5,19898.3,22113.6,0.0,813184.3,
541,0.191,9415.6,10888.0,14210.6,17312.3,13770.4,16080.8,17073.1,13652.0,20211.4,21701.2,25687.6,84467.2,32450.6,11106.2,30729.6,102791.1,71581.5,17055.2,15294.9,0.0,811361.8,
542,0.206,11067.5,15430.3,20712.6,15060.9,17367.6,23914.1,22764.0,14214.2,31326.6,20902.8,24022.7,173692.4,66519.8,10587.6,39718.3,103215.5,130830.9,21458.3,13339.9,0.0,870387.9,
543,0.375,10865.2,15982.4,20543.3,18922.5,15562.6,19327.3,21055.2,15108.0,32423.7,44499.7,28912.8,194105.5,78311.9,11115.7,47043.4,105086.8,161998.9,28931.2,21323.2,0.0,987568.1,peaceful undulations in space
544,0.239,7693.8,10369.9,12751.3,13721.0,11193.7,13144.5,12064.9,12165.0,13033.1,38821.2,35449.5,104010.8,36432.7,7645.9,54636.6,168647.5,108028.6,13334.9,15738.9,0.0,897774.4,
545,0.307,4019.9,7422.4,6583.6,6285.8,7204.8,7419.9,7075.7,5310.3,8880.4,11758.4,7578.0,67181.0,20842.5,4486.7,13906.1,36137.8,38304.7,8916.0,6218.0,0.0,888414.3,
546,0.209,11492.1,15513.2,18514.2,24237.9,16841.0,18840.7,21457.0,11916.3,17876.8,16415.7,16855.2,92589.4,24950.7,10741.6,26802.8,89665.5,46709.8,20802.2,20628.6,0.0,946866.3,
547,0.217,7482.4,14851.6,20733.1,27889.7,20606.6,27744.6,31795.5,14289.6,30639.9,7785.1,15075.2,78977.6,18077.9,4036.9,21564.4,84240.1,44071.6,27216.7,15350.4,0.0,869202.7,
548,0.506,20694.6,37521.5,35674.9,27261.5,29945.4,36695.7,31606.0,16742.3,32410.9,12006.6,10329.4,77499.2,23866.6,14408.6,16288.1,46107.5,54577.0,24885.9,22684.5,0.0,831720.9,
549,0.356,13446.7,21146.3,19866.4,17285.3,23214.5,25874.0,22243.5,18088.4,26212.5,37073.6,33556.6,154444.5,63293.6,17299.6,46204.5,141840.5,147102.5,21972.0,18379.6,0.0,822714.1,
550,0.246,4950.2,6456.8,9264.1,13541.5,7889.7,11986.2,13305.9,8158.8,24922.7,27502.4,12769.6,96216.2,43293.3,7360.4,17292.1,31915.6,49782.7,18404.8,21586.5,0.0,828456.7,
551,0.242,13533.2,13700.4,20203.5,18999.4,15598.7,20194.8,19557.7,11913.4,18602.3,14137.6,15049.5,142085.9,45780.6,12237.8,24886.3,48611.1,58578.0,17903.3,16446.1,0.0,748690.7,
552,0.173,12651.4,12678.4,13196.5,12743.4,12895.8,16023.1,14223.7,11666.5,17819.7,13209.2,7982.2,70705.8,25854.5,9589.6,18403.5,23056.9,26090.3,12319.7,11814.4,0.0,820058.4,
553,0.232,23470.3,24441.6,23060.5,20687.7,22988.5,24655.6,24018.5,24856.4,25999.5,25290.5,19680.5,46201.3,36496.2,22400.0,26333.7,21169.1,41600.2,26279.0,20368.8,0.0,770419.3,
554,0.212,17638.5,18593.7,20505.9,24732.6,20869.6,23318.1,25391.9,21799.5,35077.8,32774.0,13204.3,132214.6,57011.4,15569.9,32933.5,37408.7,55144.4,31792.1,29401.1,0.0,807963.8,
555,0.362,18486.8,22408.9,26974.2,24655.3,24218.1,29483.9,29086.8,18127.8,23159.6,35001.0,19631.1,34835.4,27568.4,18662.5,19496.5,21995.3,32626.6,24517.6,28308.6,0.0,755907.1,
556,0.215,7541.1,10762.2,14370.0,12380.6,13005.4,15865.3,15082.7,15174.7,17880.5,24097.2,12290.2,14356.1,17551.4,10356.4,16447.0,12757.7,15520.8,13344.5,22320.9,0.0,726795.4,
557,0.359,9537.9,7500.3,8336.9,7976.1,9997.7,9027.5,8461.8,9780.8,12458.1,7965.6,10826.5,12319.3,10141.3,11958.5,9329.6,7199.3,9878.8,8612.1,9166.7,0.0,623715.2,
558,0.189,13418.1,14229.2,14864.4,18329.8,16163.6,17748.1,15951.4,20297.0,17169.5,23443.0,16318.2,20544.7,20405.7,15670.0,20323.7,15607.4,21511.4,17272.2,19217.8,0.0,579125.3,
559,0.352,11719.2,12518.4,14080.1,15068.7,11437.9,10790.3,10872.9,10344.5,9867.0,15093.9,10170.1,7518.0,10581.3,9452.4,9439.1,9272.0,11240.5,9897.6,13354.0,0.0,534478.6,
560,0.27,9148.9,12858.6,14057.2,17358.1,12981.1,15819.0,15580.1,9728.9,13594.9,19585.2,6911.8,15410.9,17005.1,6455.4,9458.0,11477.4,13877.9,14621.1,21109.2,0.0,565461.4,Find purple particles streaming in an opalescent space.
561,0.271,9770.3,12384.7,15354.4,18415.8,11182.1,11409.4,13558.3,12826.1,13051.3,18650.0,14925.8,23807.8,21043.4,11768.1,19545.0,21932.0,26593.6,16130.5,17914.0,0.0,645804.6,
562,0.338,13112.8,13506.0,16349.3,13588.1,14848.5,12281.7,10656.7,11375.1,13094.5,6270.8,9561.8,12320.4,7858.7,8752.3,11860.3,12055.0,8407.2,8664.9,11341.8,0.0,586924.7,
563,0.209,4279.2,5147.8,6893.4,9582.3,4597.1,7084.7,7103.2,7550.9,7190.8,10386.6,6212.6,7059.3,9657.4,6831.4,5726.8,7492.8,10290.7,8822.7,10964.6,0.0,684897.0,
564,0.256,5842.0,6531.7,9091.1,8545.2,7629.7,7890.1,8861.7,8369.8,10145.6,11637.5,10891.8,21861.5,11901.1,7564.7,14163.2,16317.8,15930.7,8571.7,12284.6,0.0,689607.4,
565,0.271,18602.2,18534.9,18837.5,22650.7,18801.2,18674.0,19181.0,20575.8,22528.1,26953.4,15818.7,35955.0,27112.4,19328.0,17134.0,23267.6,28747.1,23658.6,28550.7,0.0,645653.7,
566,0.206,12361.4,13148.3,12733.8,16237.6,14715.5,17794.1,16826.9,15729.7,18406.7,18561.2,20515.3,23541.0,15446.2,20667.8,18143.3,21729.7,17596.2,15361.6,22312.6,0.0,836519.1,
567,0.293,14457.2,15118.3,16091.8,18871.5,16411.5,18491.4,18589.9,14307.2,23860.4,30024.0,13212.0,32165.3,26926.7,13232.7,14715.5,18095.1,29832.1,20505.2,24868.6,0.0,844926.3,
568,0.212,6082.1,6924.5,7996.4,11081.7,5960.1,7026.0,8151.1,7012.2,8106.5,20538.6,8961.3,15494.9,16461.8,6716.5,10648.6,20195.3,25996.2,10547.5,13618.7,0.0,761880.1,
569,0.205,12109.3,15143.7,15774.5,17953.6,13827.2,16108.8,15503.6,10800.7,13198.3,28138.4,11279.5,26843.1,19644.3,7717.8,19049.0,28679.1,24612.9,18889.7,26096.1,0.0,825499.7,
570,0.253,15206.2,15227.9,14369.2,11877.5,16948.6,17977.8,15517.9,20654.4,22537.2,15237.6,10420.0,37462.9,20698.3,13928.0,17048.8,17308.5,23599.2,16070.4,16291.6,0.0,826476.6,
571,0.231,12776.4,13373.2,9752.5,12093.3,14073.6,13211.2,10916.5,17710.0,17093.3,17213.5,18434.8,27855.8,17542.9,19302.6,24157.0,22527.3,22168.4,14268.4,16439.8,0.0,717679.8,
572,0.219,17918.5,21138.8,26251.1,26365.6,23315.7,26622.9,27242.4,18516.1,25158.3,18529.6,15704.6,21315.6,20498.3,16908.6,18762.9,14125.0,16294.6,24848.4,23812.4,0.0,825027.5,
573,0.152,9684.3,7858.1,6639.0,7040.0,9641.1,9653.3,7806.2,13125.5,13009.7,7756.2,14287.9,20185.4,7352.7,13422.8,13284.9,24602.4,7972.3,7743.4,12875.4,0.0,678908.8,
574,0.25,18271.4,17638.7,17295.6,17359.0,16971.7,14577.2,15537.5,21047.0,19990.1,31714.7,17740.7,18900.3,24071.7,25264.0,18167.2,14283.0,25377.1,20457.5,23956.3,0.0,788967.3,
575,0.323,26414.3,26929.6,22855.5,20715.8,26573.9,25019.4,21833.2,26282.6,20888.1,17525.9,20180.2,27188.1,20022.6,23988.8,24777.6,24372.4,20226.6,17633.4,20306.8,0.0,812015.4,
576,0.179,5010.8,4418.0,5662.4,7300.0,5899.2,5946.4,5896.0,5955.1,9167.3,13910.2,7241.1,27722.6,19520.8,6100.1,10221.5,13900.7,21590.6,9859.9,9903.6,0.0,723416.2,
577,0.368,11057.1,12433.3,17965.1,20614.9,16622.6,21808.3,23608.8,19351.1,43227.1,51515.8,14502.8,260324.5,128064.0,9518.9,41464.7,78153.0,190742.6,38983.2,28952.6,0.0,713474.5,
578,0.222,10042.8,13642.3,15071.7,10959.5,17392.1,21767.0,19867.3,15690.3,27839.7,22804.8,9666.5,207704.8,79063.9,6467.6,29958.8,44794.7,105608.8,21941.1,11266.7,0.0,666148.0,
579,0.313,21658.0,22576.1,21445.4,22689.8,22527.7,26549.3,25802.3,21880.3,28669.3,17256.7,20319.8,66785.1,28567.3,19282.7,22547.6,31014.9,24352.2,22187.2,19946.8,0.0,695330.4,Peaceful body with the same visuals as before.
580,0.336,17885.4,19079.7,22613.4,23748.1,22105.2,23476.1,21766.7,19264.8,27299.8,22308.8,26619.6,54990.0,28827.1,18210.3,31895.3,52000.9,29384.0,23584.6,20712.8,0.0,687611.3,
581,0.247,6910.8,9972.9,13959.3,14462.4,9737.2,12537.1,14958.4,7037.2,11741.8,18920.4,11134.0,13725.9,19573.2,5856.8,7062.9,14895.5,19194.1,14910.1,19549.0,0.0,661067.4,
582,0.636,10586.3,13428.5,11575.4,11785.2,12922.0,12787.6,11452.4,13115.9,15661.3,29200.0,10845.5,42045.3,21104.8,9199.7,10688.7,29352.5,62683.7,13747.2,14285.7,0.0,674247.7,
583,0.219,9367.1,10648.3,14558.8,13435.9,15547.1,18133.7,18447.4,15876.6,20988.8,17589.9,6381.2,69790.0,32768.3,5789.0,19018.2,18944.2,26400.4,22725.8,17316.2,0.0,623995.9,
584,0.26,13655.7,17686.6,15335.8,11422.6,17826.2,15824.5,15346.5,14599.5,18588.5,11151.2,14314.2,16736.9,12916.8,14119.3,14909.9,14770.7,14065.2,12839.4,10719.0,0.0,670165.8,
585,0.243,4857.3,5566.0,7157.8,6144.2,7302.5,6534.8,5839.0,5698.4,4693.4,7089.9,6642.9,5180.2,6253.3,4352.1,5326.8,7915.4,8339.8,5105.6,6946.9,0.0,595245.3,
586,0.195,7570.0,8002.4,12401.1,15170.5,10749.3,12642.1,13064.9,9621.0,14153.6,20645.7,6481.6,20672.8,19368.0,7648.1,9208.9,14216.7,22016.4,17607.0,21746.9,0.0,573228.3,
587,84.311,2814041.2,83999.2,173764.7,672629.2,102041.1,56010.1,50322.5,47972.3,76177.2,33480.0,23525.6,49444.8,39657.1,10539.6,29952.0,27597.3,59090.9,66002.1,33673.6,0.0,1381830.4,FRUITION-CALC
588,33.075,13742.8,30653.9,31516.4,16032.3,13453.3,16215.1,17981.7,11061.2,17927.0,19388.1,11293.8,17391.4,14091.8,8026.2,11641.8,17622.4,33333.7,15591.4,17602.3,0.0,656612.3,
589,0.403,20373.9,22756.1,17604.6,17425.2,22782.6,20825.3,17321.3,23570.5,24107.6,19981.9,17450.9,34026.8,26873.8,19571.7,22561.2,22838.3,28617.4,20325.9,19980.7,0.0,609793.8,
590,0.254,9605.9,16692.3,29392.4,37069.5,16101.1,24017.1,29688.2,13000.8,24179.8,25872.1,10703.3,24619.3,27565.0,6750.0,15390.9,16363.2,27581.0,28970.8,28158.6,0.0,605907.7,
591,0.203,9348.6,12788.8,16595.1,19997.2,16240.7,18420.4,20403.7,16834.2,24647.7,16450.9,13975.7,79067.5,32470.9,12497.1,19073.4,36373.3,24066.5,24489.9,20600.7,0.0,677790.6,
592,0.207,11708.1,14784.2,15676.9,16875.5,13808.5,13739.4,14992.2,13836.1,14522.3,15742.2,10267.2,16871.6,17192.5,8415.8,12555.1,13520.7,17200.3,15818.4,20599.0,0.0,716928.6,
593,0.19,15121.1,15203.0,16908.9,14624.6,14827.6,17912.8,15322.6,16705.4,18079.5,12901.9,13336.1,14745.4,14310.8,16515.6,15691.1,15297.1,12481.7,15762.1,13634.2,0.0,762059.6,
594,0.213,8141.6,7464.9,5044.0,5527.6,7896.9,7755.6,6061.7,7271.8,7950.7,9054.8,6733.2,7392.3,9198.9,5842.1,6433.7,8084.9,9388.4,6957.1,8243.3,0.0,541052.3,
595,0.245,7577.6,8089.4,7105.0,6995.3,10037.8,9871.3,8578.4,7431.2,11794.1,8426.4,5784.9,9093.7,7551.1,5614.2,5854.1,6015.5,8225.7,7034.8,8692.7,0.0,473614.9,
596,0.192,3919.6,3973.6,6848.4,9994.9,3469.4,4524.3,6312.4,4620.4,6003.4,8149.0,8459.1,8866.4,9025.8,6400.6,7275.6,10247.2,7546.1,6507.4,15993.9,0.0,498582.7,
597,0.222,10164.5,11159.8,9882.9,11966.6,11660.2,13673.0,12316.8,14331.1,20412.2,33807.5,26659.7,87573.4,37043.5,11666.4,35644.8,120848.4,64924.7,16967.9,25817.0,0.0,508116.8,
598,0.213,32526.6,32503.5,27015.0,21763.0,33454.7,31864.5,27665.4,32087.5,35852.7,39409.7,48263.6,159966.7,75599.2,25415.6,62321.5,128230.8,110164.8,30487.2,24158.8,0.0,594729.8,
599,0.254,17226.8,21112.4,18392.7,14587.8,19527.7,19163.9,19721.7,17409.8,31838.8,30393.5,24235.5,218881.9,86653.1,12783.1,40253.9,89925.7,105658.9,25742.3,18128.8,0.0,669377.5,
600,0.214,12437.8,14747.2,19976.4,17634.3,15186.7,19196.3,21088.7,12824.2,31730.9,31189.0,14314.9,145656.0,69329.5,8290.1,20630.8,43960.7,66261.1,32215.2,19469.6,0.0,629628.6,
601,0.182,5734.0,8692.2,11868.9,10756.8,9705.9,12086.3,12044.7,8177.0,13998.4,10026.8,9450.3,33663.1,10098.3,8484.0,11985.6,21592.7,16430.4,10026.4,10524.3,0.0,683897.1,
602,0.246,16123.9,28581.4,35276.7,29316.2,27776.4,33043.4,32393.3,18466.2,29554.4,21062.5,13207.3,16933.7,20116.7,15540.1,16281.2,14546.8,16953.0,26214.8,31513.4,0.0,722531.5,
603,0.191,8944.8,14017.7,16639.3,16276.6,12857.3,16677.0,16207.3,6303.8,14027.8,19413.1,5319.8,21896.5,19839.4,4391.8,5288.2,12560.9,23119.3,15311.1,15699.9,0.0,602616.9,
604,0.21,7989.2,8697.2,8999.1,8718.3,9543.0,11217.5,11080.2,11091.1,14508.6,10100.4,11940.3,34983.8,13838.1,10085.3,15373.1,30576.1,17832.5,10460.9,14158.1,0.0,703088.8,
605,0.177,3581.6,7022.2,8304.2,7785.8,6154.4,8300.8,8567.6,8911.0,16137.6,16379.8,10094.4,141039.3,34846.0,5134.1,29083.2,73247.0,47694.4,13438.6,11189.8,0.0,584941.0,
606,0.311,11442.5,14750.3,18721.0,13565.9,13387.2,16131.9,15194.7,12630.9,17819.0,47452.1,19380.5,170973.8,81163.3,12554.5,37684.8,87230.4,185366.9,15028.6,20942.8,0.0,695180.0,
607,0.198,6052.4,7443.8,12056.3,11037.1,9566.3,15696.6,15055.1,13692.4,23525.4,30880.3,28786.1,131995.0,54681.2,12558.3,37542.1,65386.3,78281.3,18052.1,21760.7,0.0,718586.0,
608,0.2,13225.1,14951.7,16472.6,14741.7,19776.8,22090.0,19494.0,31543.2,45548.4,29297.2,40768.9,185633.9,64580.3,20359.8,65730.5,83347.1,69570.7,30138.8,19317.3,0.0,711228.9,
609,0.187,10441.2,13429.9,11664.5,11425.1,15210.7,16082.6,14326.4,14644.7,24386.3,11693.2,12164.1,80067.4,21315.3,6909.9,21186.0,36236.3,19293.6,13354.4,14771.1,0.0,706432.9,
610,0.285,14377.6,20871.8,22793.0,19808.9,19054.5,24839.6,22831.5,21037.2,31879.8,30525.0,30831.5,151901.7,64729.5,14281.9,45676.5,120022.6,129518.2,27891.7,23462.4,0.0,741193.0,
611,0.179,7666.5,11580.1,15262.0,17222.8,13164.8,16542.6,17878.3,11263.8,21552.0,20767.0,10194.0,45453.9,21770.4,5684.3,14671.6,37613.1,23798.5,19101.9,22612.5,0.0,795645.4,
612,0.227,6891.5,10078.5,12859.7,10784.7,8916.4,13638.8,13980.5,9639.9,15297.7,9950.7,7956.9,42977.0,15823.6,6144.2,14191.7,24403.5,39524.5,14363.0,11343.6,0.0,724918.9,That was a suffering impermanent door fruition on a rotating radiating chrysanthemum. 
613,0.637,17943.0,21821.5,22097.2,26385.9,21182.3,24042.8,24857.1,20920.1,24410.3,52766.1,33607.2,88851.3,57142.2,17170.2,41543.4,100753.0,112913.8,30794.7,31743.9,0.0,738143.3,
614,0.254,7503.0,15541.9,23325.6,30080.7,17928.0,25649.2,29627.5,12152.5,35247.1,28006.6,13313.4,127586.6,64131.5,6095.4,28333.0,78366.9,48099.0,41734.4,36136.6,0.0,695840.7,
615,0.32,9373.7,13995.7,18346.4,17199.8,14762.7,17924.3,17385.0,13008.5,21539.9,17732.7,6017.1,40253.5,21342.7,7522.3,11126.2,10466.8,20382.2,17604.5,15967.1,0.0,817615.3,
616,0.252,16334.0,17192.5,23246.0,24181.6,16610.2,20388.8,23693.3,18074.1,21752.4,22037.0,18927.2,29892.3,20520.3,14199.3,19335.2,24491.4,21222.0,21741.8,23891.5,0.0,775484.7,
617,0.365,14845.1,18653.3,17781.2,15721.3,16061.0,17808.4,17201.5,17213.4,24641.9,19521.9,19308.9,45560.2,26593.0,13143.4,23009.6,36309.1,30364.6,18117.9,17852.8,0.0,833358.5,
618,0.323,5768.3,4794.7,6173.5,6710.2,5383.1,6608.0,7712.6,8391.3,7415.2,8678.3,8605.6,9247.9,8124.8,8100.2,10957.1,12212.7,11781.3,8808.6,8445.9,0.0,649006.7,
619,0.356,42531.9,48992.3,47006.8,48766.6,51681.9,54075.2,55334.6,53566.4,65179.4,51079.1,41896.4,42004.5,46264.9,34960.2,41662.0,39006.9,44376.7,48789.1,53593.2,0.0,786219.4,
620,0.218,17717.6,21644.5,21651.6,27947.2,24493.2,27152.0,26929.7,28069.6,29100.5,31416.0,20132.2,30093.3,30869.3,16202.9,27653.7,23296.9,28699.9,29258.8,32916.7,0.0,774953.7,
621,0.217,11305.0,9827.0,8045.9,12396.5,10837.8,9814.5,9757.0,11064.8,14220.1,13382.4,13247.4,18350.5,14663.1,10979.6,12378.7,14272.6,14164.5,12629.8,17371.3,0.0,707218.7,
622,0.36,10343.0,12007.0,13903.3,16200.9,14793.2,18179.3,18097.2,18092.4,32286.3,26684.0,12758.7,56855.3,34912.4,10221.5,27009.5,27843.1,42856.3,27899.5,20874.2,0.0,601944.1,
623,0.226,7054.3,15393.1,17478.5,9659.5,11696.2,14732.1,14349.9,6027.1,12671.4,6814.5,11543.5,10327.8,9281.8,7985.9,9041.6,12014.5,8220.8,10872.8,7370.4,0.0,643582.5,
624,0.235,26851.6,21892.9,22605.0,25474.2,22886.3,23240.6,23315.6,25848.9,27825.0,18396.3,24741.0,29813.2,23974.6,28146.7,26934.7,29138.6,20151.5,24090.7,21785.2,0.0,596848.9,
625,0.273,19736.9,26362.9,31118.4,29130.9,29765.9,37156.0,35243.4,25793.7,43656.5,29704.7,17959.3,32336.5,36458.7,21914.4,21717.1,14186.7,23575.5,39669.1,32496.2,0.0,597961.2,
626,0.321,12704.6,12687.5,16070.5,18572.2,14056.3,17978.8,17041.0,13994.9,18188.3,18091.9,15369.7,24742.8,15411.5,16682.8,19088.7,22610.7,19410.7,16093.7,22023.0,0.0,529556.5,
627,0.382,16171.5,22803.6,28102.4,29614.4,21068.0,27271.7,29820.8,20164.6,26407.7,28328.2,17478.9,28328.6,31876.6,11423.8,20973.0,20997.3,29927.8,30059.1,30448.1,0.0,499082.1,
628,0.259,19051.1,20590.5,22958.0,18907.1,21982.4,25542.5,26069.3,19214.8,26864.1,14834.9,13863.3,21592.6,13934.3,13636.7,17758.4,22067.0,15392.1,20502.7,20519.7,0.0,552186.8,
629,0.187,10435.5,15132.0,24074.4,30992.3,15426.9,23404.7,27651.0,15550.7,26402.2,33647.8,11446.8,54093.4,46799.9,11239.8,17298.1,15288.5,38887.5,32838.7,34816.1,0.0,555312.4,
630,0.216,6512.6,8912.4,8012.4,6745.6,7579.3,9107.2,8147.7,7106.8,10456.9,15707.0,11235.5,21398.3,13043.9,7409.4,10650.0,16117.0,13365.4,10527.2,16637.5,0.0,597892.2,
631,0.29,26807.5,24430.3,23693.9,33686.2,29761.2,29665.5,28483.9,33819.8,31662.7,67567.8,54758.5,91067.5,65344.9,38197.2,56264.3,104563.7,130408.8,29680.1,43041.0,0.0,633460.0,
632,0.239,10766.3,18372.5,19569.0,14521.5,16738.4,22906.8,24579.0,12834.3,28286.2,24725.4,33130.7,168992.0,71401.2,11275.1,33390.4,101341.3,130485.6,26284.6,16818.4,0.0,596298.1,
633,22.088,24784.4,37800.9,43032.0,38886.8,36421.0,42350.4,39899.0,31374.0,49294.1,21959.9,22101.4,239795.9,83213.7,16296.6,57739.5,204828.3,184045.0,38763.7,28255.3,0.0,413701.3,
634,0.831,10555.9,17451.9,13143.7,10591.0,15522.1,17197.9,13037.5,11856.7,16772.7,31461.4,26521.7,104195.1,31820.2,9614.2,37881.3,116064.8,67316.5,12701.4,12604.5,0.0,456914.7,
635,0.487,9274.7,12884.9,12156.3,10980.3,13116.1,14183.7,14404.4,18227.8,29772.0,25899.9,26244.6,234328.6,95117.3,13077.3,57080.1,126835.7,134612.8,24596.4,16581.2,0.0,538544.0,
636,0.444,9486.2,8604.4,11561.3,9869.8,10625.2,14317.8,12960.9,9768.6,17570.4,23963.4,12874.3,87690.3,40875.7,6327.1,13272.6,45750.3,95650.0,12892.2,12306.8,0.0,548463.6,
637,0.36,13724.9,18896.0,20064.6,21284.2,19302.8,21269.6,22195.0,18572.0,34928.7,37629.7,18019.9,139842.1,54719.9,11422.9,33117.7,59663.3,96060.3,26257.9,25547.7,0.0,583051.7,
638,0.233,10301.4,12209.5,18155.1,20514.4,15409.5,19388.4,22420.6,16927.2,27587.5,26641.4,29135.4,135449.9,34651.7,9364.3,47558.4,125133.4,87292.6,21919.0,17955.1,0.0,491930.4,
639,0.224,17872.4,15339.8,13193.3,10525.8,16422.4,15026.8,15071.2,21242.0,28300.2,10570.6,18871.1,112417.8,26182.4,14806.7,42389.0,66401.7,15746.9,17930.6,13123.3,0.0,539641.0,
640,0.244,26206.7,31116.9,29448.3,23891.9,30368.0,32721.5,27109.1,25075.6,28101.2,25793.2,26454.5,138505.6,53350.8,19184.6,44880.9,95465.4,93961.2,24218.3,22061.1,0.0,579929.2,That was the body breathing in a sweet afterglow.
641,0.224,18506.3,28210.3,28847.8,25670.1,26433.4,30920.9,29204.2,22482.2,40666.4,34655.2,12283.2,160380.4,77596.3,13092.3,27806.1,33382.4,122671.3,35238.3,26495.8,0.0,567480.0,
642,0.927,13109.4,22496.3,22734.3,18868.3,23997.9,30878.7,28781.1,16722.6,42425.8,20365.1,22741.9,145531.3,56752.8,10415.6,36730.0,73949.3,85091.2,27821.6,14543.1,0.0,573352.3,
643,0.496,10538.3,16002.1,19406.7,23810.4,13813.9,15977.9,19541.5,10269.8,23920.0,32339.4,8466.1,106954.9,47028.2,4675.3,15187.7,43184.4,103997.9,22553.8,20656.3,0.0,526314.9,
644,0.256,11032.2,14007.4,14326.1,14129.0,15482.3,17408.9,14849.5,11233.3,18383.3,20531.2,5588.8,35012.7,22264.0,7011.2,8398.6,16627.5,40846.3,14264.4,9938.8,0.0,652354.3,
645,0.535,24443.7,28368.4,30612.0,34172.5,33741.6,37066.3,39860.2,33292.5,55917.5,53182.5,16528.8,168324.0,100663.9,17218.8,43059.9,76689.9,129832.6,51715.4,42193.9,0.0,528259.3,
646,0.249,16832.1,23688.3,31263.9,25551.1,30592.2,35618.0,33480.7,22179.9,48038.4,34849.8,29372.0,248300.8,87564.3,12336.7,60085.0,162737.7,165772.1,36453.1,27554.9,0.0,646134.0,
647,0.233,26743.9,31085.4,34629.1,28232.4,37209.8,42408.2,38539.5,37109.5,59621.4,81619.7,44204.5,203054.0,133789.0,32771.0,60774.8,91846.3,242185.8,52305.5,40673.9,0.0,766270.6,
648,0.226,12071.5,24355.1,33878.6,28258.3,26716.6,34290.4,34298.2,14849.5,32825.9,24086.2,10918.7,102141.7,44484.0,7073.5,18493.8,74413.1,75597.5,30421.7,23338.7,0.0,619621.9,
649,0.202,7605.2,6820.4,5839.8,8480.1,6833.1,6594.9,6859.8,9336.0,8009.5,12362.1,21056.8,15772.6,5278.1,11466.1,18586.3,37281.2,11602.8,5528.3,11079.1,0.0,594077.3,
650,0.222,11401.5,16290.2,17663.3,16213.1,21199.5,23688.5,22437.9,13409.3,25290.2,44708.9,13970.2,125604.3,67272.5,8509.8,22704.6,64899.8,167877.6,23092.7,21282.5,0.0,632429.6,
651,0.248,17302.3,29808.3,31659.3,18378.7,34224.8,40647.4,32284.8,19608.0,37106.9,13314.9,23320.0,152108.5,38246.8,12263.6,31973.8,88164.9,84416.4,21091.0,13790.9,0.0,663109.7,
652,0.223,19571.3,29558.3,25955.1,20598.4,21561.8,24105.1,20842.6,10468.9,16112.4,10553.0,19526.8,71311.0,25254.2,16188.0,17325.2,73450.4,70519.6,15301.6,15033.5,0.0,757993.2,
653,0.189,12249.1,20831.8,32006.0,40919.4,24114.8,32596.3,37343.1,21563.5,43402.7,40244.0,12113.9,104921.1,51195.4,7919.1,37971.6,88477.8,89403.7,42210.9,54853.9,0.0,702831.8,
654,0.298,8088.7,12735.3,14220.1,17512.3,13630.6,16416.5,17609.0,11062.6,21684.2,30208.0,18591.5,35310.8,27523.5,11931.3,17387.6,23713.2,30580.6,23043.3,26782.5,0.0,667866.6,
655,0.214,12685.6,16793.1,14981.0,14134.1,15057.4,15442.7,14705.3,9830.4,15571.7,32244.7,18078.4,69597.3,35352.8,7314.4,21991.2,68452.8,74322.6,13179.1,16265.2,0.0,685162.9,
656,0.22,13959.4,20198.0,23856.2,18254.6,20359.1,25468.7,24280.3,12494.3,22361.4,28654.7,16683.4,132245.1,56300.8,10253.8,24079.1,66902.8,128574.5,22019.0,15936.9,0.0,714011.1,
657,0.2,10274.2,12299.9,17729.7,19388.8,12855.7,16015.1,17774.4,11025.6,15837.8,39225.9,12439.5,32943.7,28089.3,8785.3,11361.7,16134.6,36818.6,18548.2,31494.2,0.0,796470.3,
658,0.284,33935.1,41604.3,41741.0,32605.1,39411.8,44121.2,40167.7,30738.8,43415.3,31771.6,21154.9,94361.0,49346.2,21118.9,31680.3,56571.1,102288.2,33474.1,24573.1,0.0,586310.4,
659,0.183,5409.4,9807.2,9289.5,8082.5,11016.1,13127.4,14141.0,10381.7,20357.2,35513.3,17721.7,79964.5,63371.6,6295.8,24894.6,52757.9,118821.3,19118.4,17271.0,0.0,682794.5,
660,0.213,13282.2,20917.9,26528.0,23194.4,21882.9,27766.7,27716.2,18303.0,23004.4,22433.3,18017.3,95222.9,41165.8,9456.6,36565.4,84611.4,114690.4,17563.9,14979.0,0.0,729017.2,
661,0.192,9861.5,15307.1,19323.4,15987.4,14309.0,18104.1,19024.6,9361.4,18589.5,17648.8,12555.8,45193.2,28880.0,8289.3,12547.3,14747.7,39245.0,19481.3,15841.3,0.0,658438.9,
662,0.289,9238.5,22731.7,23987.7,13843.7,21958.4,31103.7,26733.6,16234.5,33203.5,33567.1,39338.0,169883.8,75780.6,10774.4,57336.9,146970.8,168930.6,19045.5,8541.1,0.0,701579.0,
663,0.177,13330.1,13074.7,16133.8,24255.9,14153.6,18646.7,19925.2,19580.9,22906.8,21650.6,22631.7,99550.2,43977.0,19619.5,37310.6,54951.4,83725.4,21668.0,20441.1,0.0,617471.8,
664,0.348,19776.0,34236.1,44645.9,38771.1,36643.3,48456.5,47622.6,27374.9,46489.3,57746.0,17975.9,61886.5,64681.4,13158.3,22937.2,59690.6,139697.6,39771.8,33890.0,0.0,591122.4,
665,0.311,12096.5,22072.6,25146.6,18824.7,23701.5,29634.9,27051.6,14215.7,29631.5,31344.7,22001.4,87987.0,50262.4,9283.2,29216.6,60620.6,79036.5,23870.6,20823.3,0.0,644828.5,
666,0.362,30802.5,39259.8,45788.0,31979.5,39968.2,47219.9,45714.1,36419.3,50388.8,32433.7,27873.0,100622.1,40858.6,26147.4,39711.0,58634.3,102481.3,33384.6,27494.4,0.0,616966.1,
667,0.188,15712.2,18672.1,18693.3,16644.8,19251.8,22228.0,20740.3,15157.0,21647.8,32898.1,19587.6,100910.9,45795.3,14380.7,30329.9,64630.9,94274.3,16516.6,22063.4,0.0,590295.8,
668,0.231,12484.4,13634.6,12898.4,14687.6,14971.0,15458.0,14665.7,13943.3,17722.9,21317.9,20788.5,32081.2,21165.1,10101.3,24356.6,52960.4,39697.0,15464.4,14495.9,0.0,540080.8,
669,0.208,12425.4,13821.5,16618.8,16327.6,17865.0,18913.8,19562.9,17881.0,32426.5,26190.0,25891.5,105404.4,52996.9,11357.4,33201.5,57257.3,70439.6,24006.1,17848.8,0.0,559419.5,
670,0.19,9572.7,10810.7,9768.8,10330.0,13285.4,15976.5,15277.8,15914.6,28390.6,28442.7,28654.4,147495.2,56343.8,12708.8,39074.1,65294.6,124252.0,18724.5,13063.9,0.0,599749.1,
671,0.31,7273.2,11415.5,21183.7,27451.2,11554.4,16790.9,23022.4,9214.1,25085.8,40643.6,16075.0,74800.4,60079.4,8586.9,15736.0,30184.1,73853.3,35570.8,30714.4,0.0,591012.9,Body and drawing a strong afterglow. 
672,0.235,15538.3,25162.1,28429.7,20485.8,22709.4,28846.1,26177.0,11235.2,18016.1,26576.6,17574.8,85611.1,34516.5,6971.7,18377.0,99257.0,119330.8,14180.0,11948.3,0.0,553681.2,
673,0.438,13248.7,21923.8,24943.9,23951.5,19107.1,24884.7,23733.3,19545.9,29893.6,11018.6,27076.2,100576.0,28628.4,12075.2,37817.6,87377.5,51023.8,22584.7,12430.6,0.0,622258.1,
674,0.245,19648.5,21813.4,28462.1,27857.2,25164.3,31027.5,33822.6,15553.4,32801.3,20382.7,14240.4,131598.5,45324.6,12367.1,24705.7,53614.7,122142.0,24394.5,18201.7,0.0,577913.1,
675,0.221,21186.9,33350.9,40346.3,28683.7,39080.5,49691.7,49614.8,30854.1,54600.7,39136.3,20734.1,164838.5,73459.6,16408.9,45498.0,95035.4,110892.0,44453.5,27607.7,0.0,540729.3,
676,0.28,11631.8,22417.2,27656.7,17872.8,22121.2,27356.2,23268.5,12534.2,25919.5,14175.2,22972.5,139472.2,46798.3,4733.6,31068.8,113124.2,66039.7,17659.1,14689.7,0.0,638934.6,
677,0.355,13522.5,17908.2,19713.3,22550.5,20173.6,23626.1,20062.6,18288.7,28162.7,21997.2,23680.7,122870.2,25495.5,8996.4,23668.1,74721.1,100363.1,19486.6,11060.1,0.0,571938.9,
678,0.269,6966.2,10435.1,15692.0,16460.2,11974.1,19694.7,23547.5,12314.2,29297.9,18812.7,37230.7,245937.2,54676.1,5480.6,71956.4,180638.3,97296.1,22933.2,12303.8,0.0,564763.6,
679,0.186,9181.6,12033.9,15676.4,13806.8,14073.7,15475.3,15456.8,15486.9,15914.1,15684.9,17622.1,105492.6,18689.3,10072.2,34682.6,68126.8,39098.1,12614.7,16709.3,0.0,515546.0,
680,0.477,28917.3,34947.9,48628.0,42046.0,32772.0,41290.2,42850.8,23975.8,31744.0,35521.3,27681.0,53148.0,28775.7,25041.3,24218.3,36823.4,55858.7,36419.0,36493.6,0.0,574757.1,
681,0.295,18098.7,27582.6,27453.6,19512.8,26789.9,31077.2,27291.1,19465.7,37396.5,23299.8,18509.2,93625.1,34013.0,13028.3,30620.1,66551.5,47461.3,27477.9,18303.9,0.0,480057.5,
