Time (s),Var Fp1,F7,Fp1,Fp2,F8,F3,Fz,F4,C3,Cz,P8,P7,Pz,P4,T3,P3,O1,O2,C4,T4,A2,ExG 1,notes
1,1.079,17621.7,19955.2,25268.7,28407.8,21523.5,25240.7,26510.8,17152.8,23088.9,14558.7,11432.5,20472.8,20405.5,13854.9,18035.9,17076.0,22171.5,22575.1,20624.0,0.0,7881956.5,
2,0.708,11211.9,15324.1,16309.7,14997.7,15334.9,19721.9,18896.3,12768.7,17809.5,15801.5,12925.8,16404.6,17858.1,11042.7,16818.7,14273.3,17690.5,18170.8,19204.4,0.0,9037729.2,
3,0.537,9871.0,9190.3,8309.7,11650.8,8183.3,7839.9,8331.0,10987.9,13135.8,20674.8,14767.8,19705.7,21037.9,10768.3,15938.9,22549.6,26789.1,13292.8,14601.6,0.0,8590229.9,
4,0.712,26793.2,26285.7,27935.0,32105.1,28488.7,28479.3,29313.9,29275.8,33023.3,40611.2,25603.3,46031.7,42408.1,26553.7,63341.4,36976.1,27420.6,35702.1,42754.4,0.0,6515481.9,
5,0.784,13155.2,17369.8,20544.5,19760.9,16799.7,22940.0,21065.2,16138.0,26113.7,20378.5,9926.2,25830.2,25482.8,9329.1,17800.8,19439.1,27389.0,23235.9,22458.2,0.0,57174913.2,
6,0.796,8835.0,6855.9,7747.5,7491.7,8868.8,8671.3,9365.7,10577.1,10069.8,13840.9,16710.4,15295.2,12779.7,12734.1,22678.0,18536.8,20499.2,8973.9,10296.1,0.0,207815235.0,
7,0.899,26260.8,28086.5,27044.2,27216.2,162339.9,31513.8,28528.8,26546.6,32537.4,25984.4,22041.4,28419.4,27500.8,24422.6,28004.2,22748.7,31290.1,26282.0,22247.3,0.0,1595505433.5,
8,1.009,9762.1,9730.6,12648.1,11083.9,10232.0,10051.5,10037.2,9140.6,11532.2,11966.0,11727.6,25591.4,19504.8,9471.8,15289.9,18625.0,24951.8,13816.5,21174.4,0.0,508237178.1,
9,0.994,43142.5,54502.6,56181.9,50852.4,43293.8,44781.3,55975.2,38442.3,35382.4,53536.6,35030.3,42677.0,42463.2,26982.9,60040.4,52308.6,51865.9,45599.8,54083.4,0.0,20220034190.9,
10,1.963,11048.5,18691.3,20786.9,26955.5,41178.9,17134.1,18344.1,20331.8,49205.8,21626.0,6410.3,15394.7,19772.8,10235.6,79537.5,11372.0,15991.4,22010.2,31238.7,0.0,55875623345.4,
11,1.598,15966.0,29744.9,38458.8,59997.6,70688.4,37848.8,30894.0,17879.6,70031.0,36188.1,12829.5,26623.0,32746.3,15594.1,87885.8,8067.5,28384.2,43074.9,44010.6,0.0,665792621434.5,
12,0.551,21790.7,22402.9,24400.2,27686.6,24668.6,25186.0,23051.1,22083.5,32193.9,24375.2,23096.8,25889.1,25831.7,23443.7,37948.8,24662.0,25690.2,25466.6,20985.8,0.0,19559128418.8,
13,1.979,25938.3,109483.4,188431.5,101796.1,38842.8,61455.8,75254.1,24616.8,27935.2,29114.7,17170.5,25931.0,28033.2,18255.0,27055.0,27610.9,27186.0,46185.9,41432.7,0.0,24098644645.8,
14,0.385,7349.8,8906.8,10432.7,12440.2,11468.7,12032.7,11337.8,8513.7,12830.4,13509.3,8255.1,12903.3,12377.5,7453.1,12008.4,7667.2,10943.3,14250.7,13542.6,0.0,7186856371.4,
15,0.415,15656.9,17333.6,20654.0,17879.8,22253.9,21116.2,24134.1,22539.1,23308.0,13963.1,12338.1,26221.7,19061.8,12414.6,15460.1,15668.2,22139.6,20057.8,11721.0,0.0,4655085424.9,
16,5.58,34418.4,253939.8,347614.5,136953.4,59179.5,92860.5,106113.4,33028.8,37910.1,22676.2,13777.5,25197.9,25762.1,21319.2,21635.2,15895.3,17014.8,56398.6,40462.8,0.0,792621154.8,
17,0.27,9540.0,9304.9,11014.5,12260.8,11275.3,11178.2,12283.4,14052.3,16205.9,14579.6,12231.2,21199.7,15647.5,10006.4,17099.3,16470.9,20044.7,13586.5,12714.1,0.0,712443437.6,
18,0.565,19289.0,23202.1,25913.7,26893.6,23870.0,25871.0,29989.3,21113.6,27783.1,22101.8,8570.8,24186.0,25968.5,16363.3,16393.0,14756.6,19722.8,28541.5,27684.3,0.0,31654310.8,
19,1.328,11260.8,34072.5,29109.1,8776.0,13488.2,16602.6,14077.4,9295.2,14714.5,13633.7,8557.0,17799.1,15865.3,7615.6,17302.2,13267.1,15581.9,13112.8,18393.9,0.0,8335992.2,
20,0.987,16918.1,19892.7,23312.1,22771.9,18425.6,19669.8,21370.9,16501.6,23621.3,28368.6,19365.1,24753.3,26774.9,12698.6,87161.3,23634.1,26215.6,20226.4,22866.4,0.0,38530246923.8,
21,5.314,8904.2,10282.0,10608.4,15395.9,17495.0,13734.6,16032.6,21984.6,15631.8,15209.8,8241.7,13298.8,15000.1,10681.1,16689.5,9312.9,12645.5,17685.2,20804.3,0.0,595948392.8,
22,3.848,12900.3,13845.2,13902.0,15568.2,18951.9,16238.1,19213.3,19551.9,21593.6,21635.9,14647.9,21123.0,23009.2,14088.6,66092.1,18351.8,22793.9,24117.0,23533.8,0.0,1491049412.8,
23,0.185,8645.3,12502.5,14767.1,15286.0,11642.4,14364.9,15690.1,10779.2,14462.7,16258.0,12493.4,15171.2,14116.1,10356.6,14996.9,12156.2,15157.8,15601.9,12703.0,0.0,201565268.2,
24,1.724,26466.1,28793.1,26727.2,32433.9,19935.2,21747.3,24761.4,16413.2,20671.9,16415.8,12728.2,21656.6,17880.2,13435.7,19674.0,14332.6,13734.5,21334.1,23241.6,0.0,12408907.1,
25,0.387,17828.7,12196.0,17734.2,22612.7,17753.3,17864.1,20381.5,24771.9,19443.4,18478.5,17454.3,30738.6,24658.1,19152.2,26341.8,24913.5,25534.5,35826.9,16826.8,0.0,2666098.9,
26,0.334,13102.8,14570.6,16552.6,14725.6,21570.2,18025.0,21441.9,33658.4,22701.9,15682.0,12838.1,20588.1,16467.4,11260.4,30423.9,19822.1,16371.6,24127.7,11934.4,0.0,977228.6,
27,0.265,11940.3,16966.5,18269.2,17750.7,21142.7,20644.5,20376.0,19911.4,21431.5,10612.5,9412.6,19061.7,18753.7,8449.5,26599.0,12373.9,13977.0,23352.7,13844.0,0.0,701174.6,
28,0.93,21985.2,24172.1,28044.9,20263.2,19956.8,20395.4,19108.3,23067.2,19456.2,13610.9,15515.9,12904.3,16861.1,19827.4,38148.7,13817.1,12424.5,15871.5,16032.7,0.0,664748.7,
29,0.213,7461.9,10502.0,11915.7,8616.8,11376.0,15270.1,13532.5,9660.0,18905.4,16835.3,25366.1,12587.0,13957.9,9325.1,20485.6,28828.3,15531.4,11287.6,11271.9,0.0,908414.4,
30,0.227,24113.5,27461.8,35457.0,42779.2,30330.6,36982.0,38458.3,28618.8,44969.4,48713.0,23956.2,46586.7,60511.3,27042.4,51083.8,48913.9,56850.7,43775.4,46782.7,0.0,846346.5,
31,0.213,18030.2,24640.2,30395.7,31700.1,23768.7,30589.0,34767.4,12088.0,26089.2,23106.7,6294.0,71941.5,20939.1,7634.2,28287.3,38799.5,28932.4,23707.9,29935.3,0.0,836591.0,
32,0.218,12855.5,11811.4,12955.1,10794.4,13570.2,13720.1,11427.9,21876.7,19807.5,10003.6,28940.1,46960.3,18240.1,19826.1,45089.8,54251.3,19909.7,11072.8,10692.0,0.0,736658.5,
33,0.245,26362.5,30793.4,35033.9,30559.3,31279.8,36105.1,32933.3,21458.2,36320.5,22745.0,26565.3,143713.0,55836.1,17519.3,60946.3,85670.7,70365.8,23757.5,29402.6,0.0,746267.0,
34,0.258,19193.0,18156.8,23817.6,23423.7,24182.7,26479.9,25239.9,28406.3,39143.2,25997.7,24451.7,63188.0,39232.5,23140.3,34071.4,44511.6,40025.4,26452.8,28772.2,0.0,1164105.7,
35,0.184,15116.6,17416.4,16263.6,13643.1,19392.6,20624.9,16925.2,22234.4,23591.2,16783.1,20429.3,39357.2,22028.2,17238.9,32607.8,39543.1,23827.1,18244.4,15537.1,0.0,1169376.8,
36,0.243,10643.3,12927.7,13637.5,12549.6,17366.8,19065.6,16281.6,21035.1,31148.8,28497.8,23094.4,76976.5,67081.4,15823.8,28857.9,43876.4,54923.7,26519.6,19711.3,0.0,855522.3,
37,0.313,16106.0,17759.0,16434.3,18193.1,18101.1,19760.3,20661.8,13817.2,21339.9,18594.8,13482.7,55425.8,28199.6,14367.7,76104.4,33439.4,40660.5,19250.4,15759.6,0.0,845511.1,
38,0.232,19365.3,21771.3,28071.4,30227.1,26291.3,28033.2,33248.5,24771.3,38495.5,57547.1,19663.3,67260.0,62189.3,12489.8,33174.5,37699.1,55825.2,42613.1,43350.1,0.0,1156551.7,
39,0.209,14760.4,17182.5,19876.6,18829.4,17637.9,18684.9,18722.4,17397.7,16981.5,21733.3,15103.2,21735.3,16902.0,11323.8,60481.1,30497.6,20922.3,17612.6,22210.5,0.0,834154.2,
40,0.217,7094.5,10225.4,13634.1,11998.1,11053.9,14970.4,14474.2,6423.2,13435.5,10594.6,8033.7,6667.1,8327.4,6023.0,11170.2,8519.4,9906.7,9463.7,15250.9,0.0,1255832.1,
41,0.203,4549.1,4322.7,6272.8,8851.3,4112.8,6492.7,6687.5,5940.4,5498.0,9104.5,6146.4,10188.6,11641.0,4693.2,17497.8,7597.7,6183.7,9656.5,13759.4,0.0,808611.2,
42,5.671,15777.8,60289.4,47293.8,10662.4,19198.3,22701.7,16840.4,8939.2,8610.8,4760.3,11031.8,6081.8,5046.9,9599.7,45914.1,10971.9,4865.2,8666.2,4712.8,0.0,812473.5,
43,1.082,14472.0,27781.5,27510.5,23690.3,20768.0,25982.0,25882.5,15581.1,21651.5,19158.8,14516.2,22854.2,19148.9,11681.5,90652.9,16522.0,23055.3,20343.8,17631.9,0.0,459985.4,
44,0.213,15158.2,18721.1,18509.4,18567.8,18704.7,19986.5,19104.1,17627.0,20822.1,20326.0,21383.6,25935.7,23866.7,13551.7,31219.0,27778.7,17935.9,20168.8,21195.0,0.0,729274.2,
45,0.248,12162.4,16861.5,19995.7,17817.6,15895.9,22068.3,21483.4,20930.3,28011.8,19383.4,15392.1,67799.0,34596.4,13248.2,38503.2,59433.7,44947.5,19139.5,14989.4,0.0,690693.0,
46,0.175,9207.3,14169.9,19268.7,21404.9,16792.8,20269.6,22800.7,15704.7,22752.8,18559.8,12012.5,41680.0,14121.5,10141.5,37379.4,23682.2,14557.9,17805.9,23773.3,0.0,1181699.2,
47,0.221,11312.0,12156.3,15429.3,16622.6,13889.3,16306.8,14283.7,19776.3,22407.1,27521.6,21125.2,72598.2,36248.8,14025.4,137628.8,39361.7,34181.6,18168.7,23454.6,0.0,590394.0,
48,0.259,19686.6,21128.2,22018.6,19488.5,22042.1,22068.4,22279.9,19476.6,27374.6,17299.4,19959.4,135845.7,47076.7,13775.4,65353.4,80983.1,70020.8,17457.8,11615.2,0.0,708862.6,
49,0.319,10272.2,15179.2,18654.6,20829.2,13387.7,17078.9,18885.7,7698.5,10039.2,22623.2,12823.5,31722.4,21323.1,8864.1,52623.7,23217.6,15597.5,17174.0,31225.7,0.0,974371.5,
50,0.396,23151.1,22010.1,22538.7,23140.4,21462.0,19375.3,21122.0,22801.5,17008.6,24750.3,30924.8,28941.3,26091.5,24857.7,41399.6,46722.6,30792.8,25274.1,24899.6,0.0,304217.0,
51,0.196,15237.2,17864.8,20454.1,19851.0,16103.7,17813.0,19246.2,12018.0,16813.2,33646.3,14669.5,14125.6,24708.9,15053.4,50238.8,12410.1,30117.8,25465.7,28884.1,0.0,532348.6,
52,0.227,12030.6,13689.2,14994.0,12724.2,13772.5,14657.4,15070.0,12239.7,14977.8,12550.8,13857.1,20885.6,14106.0,12287.5,45526.5,24327.5,22314.7,11589.6,12047.4,0.0,631934.5,
53,0.275,14240.8,19645.0,25372.9,30866.3,23883.1,31043.6,31825.5,20070.1,31077.5,30260.4,14255.3,44105.9,36880.5,13311.2,70726.6,27928.8,33806.0,36286.4,32061.1,0.0,202316.3,
54,0.292,23485.9,24078.0,25353.0,24999.4,26120.4,27265.5,25995.5,26101.8,27673.6,29314.5,26162.5,31774.6,24966.3,21078.4,78677.0,33836.6,28067.9,22590.0,30938.4,0.0,293267.0,
55,0.314,19109.8,20883.1,20508.1,21724.0,21417.9,22689.5,22494.6,18425.3,19838.9,21259.6,13105.3,30378.0,28010.0,14373.6,20910.6,26398.2,51654.8,22162.9,19753.7,0.0,238391.6,
56,0.281,12018.7,15581.1,19812.4,17684.2,17717.9,20261.8,21228.8,15984.7,20062.2,18867.5,10946.5,18923.4,18580.0,11565.8,25301.2,10792.6,13483.7,19930.7,23102.4,0.0,307417.6,
57,0.208,18528.5,18388.1,18291.4,17531.4,17866.8,17914.1,15531.4,19435.8,20293.1,18928.1,18535.2,27156.1,22688.8,17908.0,87922.3,23254.6,19255.6,16819.5,18820.7,0.0,200735.6,
58,0.349,14119.8,19850.2,25622.1,24487.3,20954.9,28510.1,27329.0,19981.0,36126.9,29071.3,10938.7,63771.4,44746.5,12131.2,35339.4,16947.1,46426.0,35379.2,35003.9,0.0,447331.5,
59,0.231,27184.9,29033.6,36576.4,41351.8,31350.8,32296.9,35745.2,42583.8,47000.7,49654.4,44175.4,116584.2,64384.9,37273.1,134277.8,69002.5,46269.7,53500.9,52260.6,0.0,192303.8,
60,0.215,12324.4,10585.9,14694.8,16423.0,10638.4,13283.4,16615.1,13562.2,16599.1,22918.8,16804.1,40439.6,33413.0,13841.6,33713.0,22558.0,43149.5,21938.4,20646.7,0.0,313777.2,
61,0.241,10181.3,11058.3,12534.2,16078.0,13083.7,16957.2,16983.0,13310.2,22267.0,20630.7,27316.4,61704.4,21492.5,13093.5,77186.7,54228.9,21274.6,19401.6,17131.0,0.0,309437.6,
62,0.193,8011.0,10436.5,12193.5,14496.3,11153.3,13686.9,16494.4,14467.6,22739.6,30285.3,12460.4,37071.0,30185.4,12216.6,77099.2,21833.4,26268.3,23064.9,27257.6,0.0,231261.5,
63,0.269,14110.8,17247.4,19460.1,22135.2,17396.3,20938.0,20749.7,12584.8,17749.1,36404.8,9128.3,68622.5,51467.1,9941.4,110670.1,43267.7,52084.6,23540.1,32617.5,0.0,143998.4,
64,0.178,5620.0,7698.9,8701.1,12061.0,7591.4,8979.4,10385.3,6293.2,9616.7,15647.7,7689.4,39756.1,21061.7,4758.1,27588.8,16382.1,34396.2,11581.3,13080.7,0.0,284961.3,
65,0.544,15273.8,15689.0,14892.1,14272.4,16677.9,16198.8,13760.7,18077.1,20625.5,14091.4,22045.7,35955.7,26912.9,17975.8,48627.1,27614.6,29944.8,16737.1,13756.0,0.0,181299.3,
66,0.165,10529.9,10987.5,8688.0,11413.5,10927.3,10741.7,11023.3,13030.8,10852.3,22864.1,11644.9,30146.3,29957.3,8309.3,25284.0,24011.5,35132.6,19370.3,18827.6,0.0,181177.4,
67,0.57,13013.4,15273.3,15675.6,14418.6,17370.0,19630.0,18401.7,16203.6,22875.9,35768.8,23731.8,115366.9,58745.4,15685.8,33408.6,60776.8,85683.6,24336.7,21149.8,0.0,239815.6,
68,0.226,10123.2,13485.1,18266.9,23683.1,14720.2,21830.7,27378.8,18488.0,37481.1,72179.1,42918.2,143341.2,121700.1,19419.0,41001.6,100869.3,138968.0,45429.4,40796.5,0.0,246309.7,
69,0.244,21923.1,26380.9,30774.3,28300.7,26093.0,34385.5,34258.8,18964.5,40721.2,21134.5,9770.1,107391.1,37995.0,12922.0,25857.3,56141.3,32039.6,29120.2,24108.7,0.0,207085.9,
70,0.293,9559.0,10279.0,13149.3,13993.8,11061.5,12416.0,14266.0,15019.4,13742.4,27825.2,22873.5,79064.1,36384.9,13485.9,45726.7,54659.9,40417.8,18116.1,16411.9,0.0,172845.2,
71,0.425,9243.1,10490.9,10784.9,11317.2,10495.7,12636.0,13076.0,13744.8,19365.6,16652.8,15774.4,52580.7,23019.8,9395.3,28359.4,39777.1,26392.0,14370.2,20938.9,0.0,263990.2,
72,0.251,8062.5,12046.8,14972.8,12795.4,11863.7,16760.9,17731.7,12561.0,19207.2,11486.7,19219.4,44227.7,15017.3,9718.7,31886.2,39706.4,14705.5,16631.4,10534.2,0.0,150918.1,
73,0.187,11257.5,11883.8,13634.1,17225.2,14039.6,16282.9,15900.3,12916.3,17302.1,26266.1,13345.4,37711.3,28884.6,11189.9,16142.0,24100.0,27401.3,21878.4,24048.0,0.0,135037.6,
74,0.203,8295.0,6847.0,6404.8,6761.2,7647.5,8480.4,7156.7,10541.1,12432.9,18316.7,13123.6,27268.8,17869.4,11043.1,26178.8,19122.1,35185.1,8312.4,9043.9,0.0,150477.3,
75,0.217,14514.1,20505.7,23757.2,21578.1,23775.5,29431.7,30273.7,19541.1,31421.5,19372.4,16163.8,22625.1,18506.5,13396.7,23792.7,31653.7,24483.2,21135.5,17483.6,0.0,202083.3,
76,0.183,13922.9,16388.3,20599.2,18717.0,15565.7,19870.6,20536.0,17840.8,18526.4,12057.7,23298.1,15366.4,13524.7,19460.8,21424.8,18800.6,14316.9,16607.9,16525.6,0.0,258930.5,
77,0.166,7839.7,9180.0,12883.3,15399.7,10487.0,15516.1,14780.8,12383.2,19820.6,20487.2,9817.5,21853.6,19892.5,9730.0,27406.3,11582.1,17999.2,18755.1,25412.2,0.0,264429.8,
78,5.965,10166.9,37636.3,55922.8,26084.5,17995.6,25113.7,29026.3,12071.2,21683.5,15707.8,10739.1,21177.5,15718.8,8560.3,35564.3,18448.9,11844.6,21398.7,26960.5,0.0,142936.5,
79,0.217,9145.1,9561.9,9340.0,9962.0,10397.0,12125.4,9357.3,10434.7,13109.9,20967.8,10010.3,18390.2,15903.1,11512.1,27898.3,14102.7,23819.1,8131.4,17936.3,0.0,149976.4,
80,0.214,10612.3,15520.3,18707.5,19255.9,12958.4,17536.4,18106.8,12376.4,15991.1,33694.1,18838.9,58135.1,43088.0,15183.6,24560.5,41384.4,39773.2,23761.2,25074.7,0.0,138593.7,
81,0.207,9112.3,12121.2,15681.5,15448.7,13079.1,16263.1,18995.0,13029.9,19598.4,27764.0,22965.3,67149.0,25460.7,12688.6,50046.6,62008.8,19301.9,19558.0,25176.1,0.0,166903.9,
82,0.265,24333.2,25563.2,25855.4,25112.6,27426.3,27625.1,28050.7,21991.9,26972.9,25418.2,20979.5,26369.5,25143.6,25792.4,78051.8,27788.9,17252.7,26691.6,35786.4,0.0,189414.8,
83,0.214,8961.6,11767.1,14033.8,10416.5,11615.5,13412.1,11951.8,8050.3,14643.2,17017.3,10435.5,17482.7,12665.9,7587.8,21280.0,19240.1,13143.3,9821.5,21712.9,0.0,160310.3,
84,0.171,12893.2,15801.1,15401.0,16364.4,14857.3,15244.5,16309.2,17336.5,21620.6,20851.0,6089.1,38885.4,23394.0,9193.1,46640.2,13960.2,21673.8,22116.2,26956.5,0.0,187061.6,
85,0.235,23212.5,22970.0,20822.1,24948.7,25236.5,25584.3,24868.7,30681.5,43084.2,32028.8,34776.2,120172.2,45424.9,30300.3,64514.7,85942.5,56979.2,29441.0,37946.2,0.0,115635.3,
86,0.259,6397.9,7371.4,8494.4,9303.3,7632.3,9999.7,11438.2,12973.9,16152.6,23886.1,21245.5,160813.7,64362.4,11446.7,49099.0,89377.9,71468.8,21710.5,13967.5,0.0,245599.1,
87,0.192,10660.8,13761.0,20347.5,21185.3,13779.8,18934.2,20972.1,12352.4,13518.5,23759.6,16233.6,74365.3,20171.4,9478.2,47480.1,48687.4,20390.5,18119.4,27985.5,0.0,180027.4,
88,0.246,7902.3,8929.7,9078.8,8255.8,11215.1,12004.1,10691.6,10936.5,12687.3,9561.5,8036.6,8741.1,10574.0,9526.3,26188.3,8548.1,8623.3,9951.7,15651.7,0.0,237336.0,
89,0.198,9105.5,6413.9,7995.5,9507.4,11987.4,12980.1,11307.4,11686.5,13071.9,13081.3,10120.9,11503.1,10528.1,8658.3,16262.3,11299.3,10350.1,13054.7,21497.1,0.0,126322.8,
90,0.165,3414.2,6304.2,11077.6,14759.2,5711.0,9220.8,10758.3,5477.6,10195.6,14210.3,8036.9,14591.3,13646.6,6102.6,19271.4,13379.8,13967.1,11156.8,23643.8,0.0,190787.7,
91,0.199,24570.7,30399.3,33999.2,40257.8,29657.1,35717.4,40154.7,33341.0,43778.1,55230.3,32630.0,61006.2,49728.4,28197.0,38620.3,57493.8,52076.7,43175.9,69258.3,0.0,233108.5,
92,0.2,20747.1,22403.5,25392.1,29347.3,24295.2,27134.8,28659.2,19624.2,30212.5,39960.3,16328.3,71944.2,49840.6,15489.8,21697.5,28618.7,24033.5,41162.1,58515.3,0.0,231034.6,
93,0.413,4569.8,5875.8,6810.9,9461.7,5014.5,6153.6,6691.9,10637.5,7006.2,12084.8,25559.7,58920.8,10165.9,12713.2,41230.4,68090.7,13707.9,7799.6,19620.4,0.0,159033.0,
94,0.194,10206.4,11469.3,12888.2,12920.0,9476.3,10329.3,12919.0,8016.3,8512.7,11106.1,19389.8,59582.8,9791.0,12176.7,61741.8,69872.6,24634.7,11230.9,13606.2,0.0,167866.7,
95,0.213,19669.7,37345.8,40870.7,31376.6,36007.9,46053.2,41494.1,22740.7,46981.0,17684.5,12730.5,24800.5,22949.3,12961.6,32495.6,14258.2,18856.1,28685.6,28416.6,0.0,154259.1,
96,0.171,17628.1,19132.1,19255.5,20911.5,18251.3,20725.6,18503.3,15959.7,18474.9,29414.4,30646.7,69714.6,29517.7,25332.2,24216.3,41518.1,25420.5,23054.0,30838.8,0.0,115798.7,
97,0.154,6316.3,9906.8,12349.0,12253.0,8504.4,12701.9,11892.4,9360.4,11381.2,33721.6,18086.0,66703.8,42370.7,7265.9,32035.7,47440.2,54211.4,15917.2,27702.2,0.0,180981.5,
98,0.171,12658.8,16534.7,20637.2,24719.1,19109.0,22161.4,23914.9,19040.3,34277.8,47549.5,22067.3,153337.7,71701.7,12137.8,33022.6,66646.3,58171.4,39852.8,43338.2,0.0,153497.4,
99,0.269,21775.3,27480.7,27402.9,26008.1,25678.0,28456.3,26744.6,22984.2,32301.5,19485.0,18040.3,48265.1,25778.5,21673.7,37388.4,28803.1,19092.7,25560.4,24836.6,0.0,408761.2,
100,0.328,15145.5,21191.6,29617.7,28357.6,20686.8,28767.2,30286.1,14592.4,30323.8,32194.7,20890.5,78815.2,37574.1,11045.8,34382.0,80178.6,32846.6,34127.9,40799.2,0.0,138227.2,
101,0.3,44469.3,48830.5,49033.1,45281.5,45550.4,46212.7,44317.6,36852.0,45132.2,42526.2,30152.9,68563.4,35795.2,34990.7,84110.1,35585.6,28001.6,42582.5,48014.6,0.0,145777.6,
102,0.357,32991.1,40892.6,38201.2,29509.9,41906.0,47748.3,39400.5,29959.3,47901.2,23105.6,15796.3,40965.5,29476.5,24117.3,21943.8,12828.2,33367.3,30234.1,25069.6,0.0,213572.7,
103,0.387,14216.3,17655.8,22151.3,23781.5,17816.5,17413.1,22420.2,23791.1,25205.1,30569.3,17278.7,65609.4,42213.0,20561.7,33280.3,24845.3,28322.3,30647.3,36906.3,0.0,241837.4,
104,0.211,9321.9,12465.5,13751.6,13722.8,13514.8,16973.6,17828.9,14421.6,19801.1,19677.3,35570.4,55600.4,26434.9,17181.2,54649.1,53082.4,37330.6,16235.5,20144.9,0.0,181651.6,
105,0.384,22512.9,27771.3,34877.9,32134.3,27283.9,30775.3,33244.2,25526.2,29191.6,26563.9,19120.7,29668.7,30014.6,19407.7,30056.4,23632.6,31574.3,30931.9,26682.9,0.0,212997.0,
106,0.226,13212.5,18567.6,21907.4,23140.3,20278.8,24572.9,23902.3,15536.5,22800.9,26873.4,8638.2,63160.8,26675.1,9366.1,56375.9,34040.6,38839.5,24182.1,31505.1,0.0,202943.0,
107,0.205,11658.0,11852.5,11738.8,15626.9,11094.9,12016.6,12057.9,10917.1,11411.6,17169.6,7166.9,17675.7,18395.7,7829.1,14453.8,13101.1,13327.8,15360.3,22300.7,0.0,153245.2,
108,0.251,12613.3,13741.7,15357.1,17245.7,13673.4,14628.7,15333.9,13250.4,17047.5,17133.9,18724.2,27123.9,16276.8,12904.0,22671.8,25817.7,18474.0,16369.7,26109.8,0.0,103343.5,
109,0.218,9328.6,10392.7,13238.2,14068.6,9938.3,12751.2,11911.2,10060.3,10116.9,17652.5,10232.5,25313.9,19715.7,9319.8,111073.4,18888.5,28455.5,13564.1,18688.3,0.0,284716.3,
110,0.23,20121.0,26663.6,26013.6,25583.9,22161.7,27056.0,26329.1,14781.3,19788.2,29115.6,12827.1,23475.5,26252.8,12521.3,171994.9,19910.8,24181.9,25632.7,33580.6,0.0,191419.5,
111,0.211,12825.5,14967.5,16610.5,13749.1,15158.5,20724.8,17823.6,12083.6,15457.2,28187.6,26621.2,22146.0,20654.1,16201.7,55838.9,41548.8,25512.4,15310.9,19097.2,0.0,221258.9,
112,0.347,28433.8,33358.1,40163.0,39588.9,34331.2,40511.0,44333.4,23343.9,45444.1,34951.3,23339.7,41769.0,42505.5,21194.0,127126.8,35824.4,36506.2,45221.1,35864.5,0.0,122835.1,
113,0.185,10968.5,12028.3,13215.9,12493.8,14121.5,14998.1,12781.0,19300.0,13520.2,14147.4,15814.5,19787.5,18734.0,16962.4,122450.5,18112.3,17354.0,13273.8,13212.3,0.0,149804.4,
114,0.202,14223.8,19411.1,21752.1,13225.4,16047.2,19506.4,15178.2,21659.1,21817.2,24533.4,29073.3,112294.3,36749.6,16803.2,73453.6,78725.1,40168.0,12344.0,17606.8,0.0,158661.6,
115,0.199,15443.1,17855.5,17726.7,17234.8,18681.2,19764.8,18404.9,18757.3,23118.4,25354.3,20280.2,43302.2,26603.9,16309.0,71598.8,43008.3,19944.6,22766.6,30902.9,0.0,284229.5,
116,0.219,13625.7,17270.6,20344.6,24421.0,20238.9,22208.9,22777.1,18015.2,25341.9,23799.3,14308.7,35856.7,29474.8,14052.8,76162.3,19706.9,29717.6,25976.7,42051.0,0.0,144593.4,
117,0.238,10919.5,11340.9,12561.3,13953.2,11731.9,11621.9,13569.5,11784.6,17945.1,25880.4,12262.3,95388.9,36817.4,9588.2,59530.0,36455.4,46695.3,22275.9,24367.4,0.0,299532.2,
118,0.231,12214.8,17351.3,16544.0,16608.7,17412.1,19618.3,18343.7,15392.4,23668.6,16048.5,7321.2,23363.7,21220.8,8705.9,56380.4,9187.1,10837.2,21556.6,28970.8,0.0,178240.5,
119,0.435,14668.4,20368.2,20108.1,17011.7,20653.8,22569.0,18338.8,19475.2,24713.8,22762.2,10554.2,17506.2,23711.6,13477.2,82311.8,11526.9,20277.1,20806.6,23734.1,0.0,165594.9,
120,0.2,17071.3,20388.6,20642.0,18520.4,19012.4,22070.3,20110.9,16317.7,19998.8,15859.3,12938.0,22986.7,17484.0,11355.7,74234.8,25144.6,12889.7,18544.2,20884.9,0.0,336407.3,
121,0.22,17407.6,18250.6,19104.8,22417.3,19151.1,19300.2,21070.5,20584.1,25209.0,35282.8,19444.7,36401.2,35603.7,17472.5,150914.5,28728.6,25449.2,26866.7,36087.0,0.0,112378.9,
122,0.214,17771.6,20823.7,29656.5,32662.3,24899.3,30333.2,33583.5,16715.9,25718.4,35003.9,13469.9,59275.3,35463.6,12847.7,206702.0,42471.0,38576.9,29521.3,43647.2,0.0,125387.6,
123,0.207,11244.4,15007.3,20429.5,20445.3,16398.3,21763.5,21751.6,16871.2,26281.6,34006.2,18127.2,50266.0,33958.4,13389.7,72198.7,38999.3,30143.3,28652.2,29043.9,0.0,154321.9,
124,0.224,12286.6,15687.5,15405.9,16324.6,15543.5,17494.6,15740.7,15522.7,18175.9,22205.9,17373.9,24758.2,27429.7,12201.6,54845.5,32431.6,28295.5,24576.6,19511.5,0.0,215574.9,
125,19.938,35045.1,113643.6,194569.2,77202.9,35024.5,38228.4,36232.1,25710.4,26915.0,14868.8,18360.3,43328.0,22303.4,12381.2,37271.3,31575.7,24583.3,18827.8,16975.2,0.0,173888.5,
126,3.216,7886.7,7401.2,17174.7,15239.6,11288.2,13559.7,14679.4,8507.0,13526.2,11842.9,7354.3,13432.9,13351.5,7707.9,7802.4,10195.4,15130.7,16337.7,18846.6,0.0,500093.9,
127,1.242,17339.4,16036.0,14913.8,13636.0,21639.0,20741.7,24098.8,23179.6,21412.7,9192.9,11946.4,15435.2,13837.6,11368.4,18062.1,12176.1,10972.9,35982.1,10451.4,0.0,2376768.4,
128,0.348,18364.4,15383.4,23942.5,13909.0,19517.9,19475.1,18736.3,21375.9,22488.3,11134.0,17576.1,19237.2,15248.6,22883.8,24817.9,16066.0,18384.3,21715.2,11699.1,0.0,1395884.2,
129,0.54,10251.2,9159.6,12020.3,10301.9,11503.9,12565.0,13012.5,13149.7,11534.5,13631.6,18188.4,14974.9,8294.9,26142.5,11996.7,13360.0,11704.0,13185.6,17828.1,0.0,282080.3,
130,0.361,3357.3,6995.2,9739.9,5700.6,11369.1,9443.1,8983.8,11766.4,11614.6,7182.4,2949.0,8657.1,6239.9,5238.4,27725.3,6220.4,8520.6,10270.8,9010.7,0.0,168256.8,
131,0.24,8906.9,11991.0,13936.6,14452.4,14177.9,17825.3,16831.9,11794.0,14587.1,14666.7,10368.3,35477.1,16911.3,7117.7,34681.0,22764.6,21885.8,16701.6,18116.4,0.0,125895.6,
132,0.261,8445.7,12769.2,14313.1,15930.8,14074.5,16684.4,16086.0,10800.2,19746.9,21440.0,6876.0,105049.8,38317.6,9343.8,29410.2,42772.2,44767.9,19836.3,21848.8,0.0,264197.5,
133,0.258,4895.9,7362.3,9150.8,12012.4,6967.5,8913.9,7620.8,6623.9,6498.2,7341.2,7658.3,18827.1,6475.1,9118.3,24087.1,14607.4,5917.3,6152.2,16548.5,0.0,155284.1,
134,0.259,13585.9,14178.0,12840.3,14739.2,12992.1,13132.7,14108.7,15383.1,12613.8,12292.3,15445.0,20641.6,12910.4,14312.2,107577.5,21436.2,19102.8,10741.2,15162.1,0.0,215793.2,
135,0.223,14990.0,20447.0,21148.6,31710.6,20984.9,24806.8,26798.4,18635.3,22919.3,29733.0,16106.4,29567.7,27203.5,17758.2,44314.6,23260.2,34598.4,24876.3,32332.0,0.0,159820.6,
136,0.599,10394.0,13022.2,13969.0,15336.0,14717.0,16323.4,17399.2,18728.8,18626.1,15792.5,12607.8,21038.0,20656.5,16264.8,96739.3,14981.4,17567.2,18717.9,22712.7,0.0,137721.6,
137,0.319,13735.0,12180.9,16937.3,13943.2,11792.5,11105.7,13185.9,16185.2,12920.7,16123.0,16270.1,23823.2,17824.0,20836.4,44954.0,19263.6,18049.7,13159.6,20195.9,0.0,298267.6,
138,0.71,10178.9,13555.2,17645.2,16366.5,11935.7,13903.3,16735.8,7338.5,11666.8,18670.3,9968.8,37943.9,16970.0,8636.0,41369.6,41790.2,31840.7,14437.0,27272.5,0.0,171361.1,eyes closed
139,0.955,11128.5,10381.2,11386.3,11094.8,13428.9,13181.6,14610.9,16222.4,15496.5,13354.5,18365.4,28546.7,16720.4,12941.8,69248.4,30821.1,19434.3,17970.1,15175.0,0.0,159693.2,
140,0.461,11177.9,12869.6,10783.4,11645.5,17257.5,15322.9,16451.7,16587.9,16925.7,14892.8,9680.1,38091.3,14299.8,7168.4,111938.6,26973.4,21676.9,24143.8,11167.5,0.0,219532.6,
141,0.291,12546.7,12366.4,13905.0,16226.0,14825.1,12436.2,14108.5,19339.9,18778.5,17387.5,13321.5,19229.9,20117.7,13042.4,106840.8,17424.8,16408.0,19012.8,18563.7,0.0,280890.3,
142,0.466,15424.0,16720.7,18397.5,18593.7,18910.1,21067.4,19449.8,17493.5,21878.3,19346.0,11822.7,23084.1,21841.3,13733.7,38749.6,15638.2,25691.6,19684.5,19863.9,0.0,241538.0,
143,0.461,16233.9,10551.4,13487.3,17225.5,14314.7,11861.7,13801.0,16090.7,15809.3,23056.2,19509.9,22563.4,24293.2,18774.4,24241.2,19810.3,20757.3,17745.9,23840.2,0.0,184559.9,
144,0.343,14916.0,13048.0,9915.2,9827.3,15215.2,14220.3,9278.8,22737.3,17396.2,16177.9,11934.1,16763.7,18049.8,12855.1,36540.4,10082.4,18129.7,15854.7,15080.5,0.0,182283.8,
145,0.317,10401.2,13513.2,11054.4,12938.2,13620.6,13807.9,14723.3,11324.2,13862.5,15163.8,10831.0,15669.2,12472.0,9600.3,16757.5,13466.4,12908.5,13478.3,19570.2,0.0,182943.3,got the dot-  buinchf of green-  and pink in the center...
146,0.432,10179.6,10808.4,15313.8,13022.8,12750.1,12439.3,14123.1,14200.6,14887.4,20552.5,9270.7,20224.4,20379.3,8697.6,13222.4,16459.3,23731.0,15531.1,13988.5,0.0,163045.4,
147,0.503,24905.7,23128.0,27491.4,24915.1,25381.1,24178.4,24187.0,26025.8,27507.7,17989.4,24122.9,27780.3,22416.4,25809.9,121737.5,27058.7,18935.6,24670.5,22662.5,0.0,228592.2,
148,0.558,8089.7,9937.3,13055.2,12739.1,9024.3,11820.4,12897.7,9053.4,11531.2,14081.0,8239.9,17421.0,14197.2,7218.8,51113.7,20129.3,16960.0,12807.6,14960.4,0.0,339785.1,
149,0.79,4849.7,6670.2,8056.6,6815.1,7258.0,8252.9,8039.5,5652.8,5964.4,8533.6,7450.4,7565.8,8765.9,6882.0,25613.0,7154.9,9154.5,9393.8,10070.1,0.0,262685.0,
150,0.332,12897.5,16768.7,17893.6,18195.8,14610.1,16038.2,14790.2,8253.1,11102.1,15933.3,10104.9,13255.4,12801.7,9683.2,26104.2,15158.9,15755.4,11960.0,24711.1,0.0,296694.7,
151,0.249,9784.2,12744.0,15350.2,15217.7,11701.4,15368.2,14838.7,12592.0,12651.9,13844.5,18575.5,14684.4,12896.1,16274.1,49161.1,19059.0,11169.2,12559.4,20672.9,0.0,203500.9,
152,0.247,10690.6,12964.5,10744.3,11846.7,12544.5,12894.5,11470.4,8235.8,11633.7,11727.1,10711.2,11936.5,10865.8,9621.0,86627.7,10218.9,10253.1,11641.1,19575.0,0.0,148143.5,
153,0.625,13617.4,18902.5,23606.7,16164.0,20212.9,23529.0,21116.9,15896.8,20252.5,13807.3,12143.7,17454.9,16703.7,10619.3,44249.7,12966.2,14095.6,17200.8,16346.6,0.0,218261.1,
154,0.548,11136.9,11925.2,14549.6,10739.5,12842.8,13911.0,12680.0,15231.2,14280.8,12552.0,13323.2,21888.6,14497.3,12999.3,69708.4,16082.4,14573.8,11930.1,13099.9,0.0,305934.0,
155,0.364,13349.5,18747.9,27700.2,23203.6,16143.0,21133.0,23789.5,14249.7,17906.3,19586.5,9693.5,20169.6,21632.3,10689.3,60903.6,11678.3,18647.8,22200.8,20959.9,0.0,248426.2,space became 3d
156,0.384,8723.7,11913.5,12863.6,9575.4,10339.3,11147.5,10340.6,14464.5,11119.5,17420.2,19893.0,15228.6,15199.0,17263.6,79133.1,22312.8,20217.2,11238.1,12509.2,0.0,349779.6,
157,0.421,9284.2,10259.6,9841.6,13335.0,10384.2,12748.5,13419.6,12287.8,16694.3,16287.1,9383.5,18639.2,16813.2,10641.1,23644.5,11694.2,14585.3,17359.5,13401.6,0.0,546822.9,
158,0.246,8230.3,8411.5,11194.5,10802.0,9184.6,11091.9,11032.2,7755.2,8990.8,13068.3,9404.0,9539.3,11516.3,8958.7,50482.5,9004.0,10492.3,10445.7,16782.8,0.0,301400.8,
159,0.445,11275.3,14372.8,10482.0,12233.2,12752.0,12718.6,12692.2,12560.0,18723.7,15271.2,11870.1,14239.4,13181.7,11066.5,33216.1,10655.4,14109.1,12056.9,21202.9,0.0,233620.9,
160,0.69,11207.7,15604.9,16246.4,15658.8,12522.0,14924.3,14169.6,8374.2,12411.4,14674.4,5155.2,18435.4,18744.8,5527.7,81660.2,9055.8,12202.2,14428.7,18581.8,0.0,785755.0,negative after images large gone
161,0.324,10749.0,13023.5,15811.6,12186.5,11716.1,12555.1,12704.5,11685.4,12010.2,9784.0,12799.5,10045.5,9705.1,11808.7,17412.3,19484.3,9813.7,8275.4,9863.5,0.0,457685.0,
162,0.713,9357.8,11374.0,13760.0,11071.9,12779.3,14044.0,13045.9,10231.4,15338.6,7209.7,7020.2,11039.2,7546.6,9523.2,20544.3,8425.2,8216.7,10459.5,10171.4,0.0,565898.7,
163,0.309,16290.3,14275.3,16701.7,16194.6,15489.3,16488.5,22576.1,16027.5,13118.6,12712.4,11577.3,17280.7,13678.0,14615.6,51775.5,24334.3,20628.1,20774.9,13320.6,0.0,438117.7,
164,0.679,13665.7,18626.5,19741.6,19651.6,17069.7,20948.9,21741.0,16079.8,25964.6,23891.0,19329.8,93977.5,34887.0,11618.8,93410.3,80338.8,62448.6,24875.5,18341.8,0.0,612332.4,
165,0.422,15971.4,13378.7,14724.1,14713.0,14677.5,14585.4,14006.5,13973.2,16504.9,20127.2,13172.0,19398.0,21520.1,18830.2,22514.2,13114.9,14694.9,17799.3,20950.1,0.0,539035.9,
166,1.393,15823.2,15017.5,19018.9,19728.6,15385.4,14937.4,16985.5,14463.4,16704.1,23292.6,13922.8,26775.2,22314.4,12182.4,21373.0,22653.9,27049.3,18371.0,24081.4,0.0,843784.7,
167,0.347,15193.8,14695.9,14966.9,14718.1,16022.8,14027.0,14078.2,13887.0,19567.0,16715.0,13818.9,42915.7,24450.2,14407.7,63447.0,22070.2,25632.1,16722.7,19682.8,0.0,482605.5,
168,0.278,17240.1,19688.1,23919.2,22270.9,21626.4,23591.3,24208.6,20571.1,22976.2,21568.0,12479.7,19973.8,22283.4,14948.4,15454.4,14142.1,18993.5,22190.9,15955.0,0.0,607205.1,bunchf of flowing purple and red
169,0.56,10512.8,13348.2,13696.7,16345.4,11907.8,12109.8,13399.7,9923.6,11291.9,16755.1,10466.8,15950.6,18465.1,8697.2,14970.5,11813.2,17332.3,17812.1,15675.9,0.0,512559.8,
170,0.362,8754.5,10306.0,15421.7,11421.6,7964.2,7963.4,9218.6,9971.0,5735.6,14265.4,8141.3,10937.7,11708.8,7032.4,11716.1,12786.1,14952.3,12285.3,17206.4,0.0,346118.2,
171,0.432,9594.1,12040.5,13713.4,15382.8,11900.7,13286.7,14586.9,14813.0,13724.7,10327.5,12128.7,10809.7,12584.4,12116.8,79663.0,13367.4,10088.7,21190.4,10494.2,0.0,489939.2,
172,0.83,13748.6,14698.8,22844.8,19528.6,16615.0,17131.3,19249.8,12135.7,11174.0,14723.9,10589.7,6270.0,13514.4,13549.2,32857.0,9245.8,12029.3,17045.6,22733.7,0.0,680227.9,
173,0.287,21582.6,21772.2,23902.8,13272.7,28341.2,28171.5,27877.9,25562.5,30004.2,12432.4,16144.8,18039.0,14484.1,19475.2,65367.8,18928.1,13654.6,27379.9,17584.9,0.0,581571.0,
174,0.254,9574.1,13223.9,12205.1,13983.4,14263.1,15183.1,14491.1,13933.1,20522.2,12816.5,7602.4,21210.1,18146.1,7026.2,23057.8,9900.9,11398.7,20060.7,14135.4,0.0,545079.6,
175,0.254,11760.7,12599.3,14116.5,17543.7,13780.9,15998.5,15433.1,15399.2,20056.5,15127.3,16005.3,30281.1,17345.3,14688.2,34338.3,20028.4,13068.4,15948.0,20801.9,0.0,453094.2,
176,0.371,7705.5,8416.7,10746.2,13674.4,9458.4,10244.0,11605.4,11200.8,13705.1,20289.6,7425.0,23654.7,16709.8,6763.1,21482.2,23173.3,21675.9,17063.2,24032.7,0.0,517089.5,
177,0.757,36039.7,43707.4,43120.4,35782.8,43360.5,49236.5,45506.7,24148.4,39913.9,24322.8,33405.6,140188.0,57628.2,19816.2,126077.1,160544.4,149322.4,34572.1,23220.9,0.0,718938.5,
178,0.315,18280.3,19906.4,20500.9,14229.4,18198.6,19023.9,17088.3,15988.5,29809.0,71297.9,30286.6,293368.3,161264.2,10845.1,99213.5,180845.5,340423.9,26370.3,16838.8,0.0,486757.6,
179,0.574,6139.0,8605.0,10194.3,10662.1,7951.4,12017.8,10724.0,6538.9,18079.9,12478.2,30770.7,162464.6,35277.2,3948.4,55859.6,149588.7,74259.2,13584.0,10050.9,0.0,607916.3,
180,0.325,15629.6,20367.4,23185.2,23401.7,23262.1,26397.1,24031.5,18161.8,34156.5,10904.8,25478.6,114582.7,22856.7,11534.0,31601.0,104284.4,52124.4,33111.7,17584.8,0.0,583479.7,
181,0.267,12282.8,13363.0,15970.6,18757.5,18147.4,23609.7,23834.6,24127.6,35146.3,17224.2,20771.0,88801.2,37275.3,10632.4,47553.6,61864.6,30389.1,33766.3,15531.0,0.0,787370.7,
182,0.331,12945.5,11557.3,11012.4,7895.3,13100.0,11966.3,9930.7,20393.5,12350.5,10384.2,22583.2,21290.2,14253.4,21323.2,37664.8,23466.0,16221.8,11847.8,10441.0,0.0,359780.6,
183,0.345,10891.1,10112.5,10350.4,11364.0,13905.3,14477.8,13745.6,12855.9,15528.5,19292.4,10881.3,32988.5,19868.9,8381.8,20252.1,23331.5,32074.8,15225.3,17150.6,0.0,516587.5,
184,0.389,15401.5,16302.9,14520.4,20454.9,13024.2,15553.5,16202.2,11078.1,13687.2,19373.3,11471.1,19852.1,19572.9,9869.8,12438.9,16446.9,25806.4,17469.4,29152.5,0.0,616395.4,
185,0.281,13760.7,14027.2,16650.0,11625.1,12744.0,13884.0,12926.9,15822.4,12479.1,10247.0,12888.5,13408.0,10677.7,13127.9,26135.8,14577.4,9218.7,11423.5,14545.3,0.0,373956.1,
186,0.33,11862.6,15969.1,22008.5,19121.7,13471.4,17369.7,16924.3,8310.6,15216.5,19604.5,8894.2,24010.9,20925.8,7202.2,15626.1,17358.6,20039.9,18072.9,27792.9,0.0,451420.5,
187,0.219,7346.1,9002.9,11167.7,14671.0,9744.6,12629.1,12396.6,12773.9,19550.3,23649.0,17909.1,41195.0,25501.7,14858.4,16896.5,54322.2,37898.9,18698.7,19622.4,0.0,490017.9,
188,0.202,16782.5,16724.4,16631.2,13635.5,16733.3,17807.3,16506.4,15631.2,18024.5,17186.0,7776.1,48697.5,21807.6,12891.5,34447.2,16328.1,42409.5,15109.8,12802.3,0.0,523118.7,
189,0.299,14113.5,13638.5,17745.9,25986.1,15066.3,17187.3,19953.6,19427.7,22090.6,25711.9,15053.5,41194.3,26779.8,15511.5,80232.9,25053.5,29078.6,24499.8,28363.3,0.0,427246.7,
190,0.266,11398.9,12182.3,14194.7,14649.6,13106.6,12225.4,13293.2,14308.8,12798.8,11868.2,12123.4,10863.6,9758.6,13956.4,44513.4,9360.5,9733.4,12524.4,11468.9,0.0,643035.8,
191,0.442,13214.0,15913.4,20202.2,19027.8,14510.1,16253.0,16967.4,10364.9,10697.8,8710.6,7652.9,15448.4,9005.7,11268.5,30573.0,17117.8,15489.4,11954.3,12942.6,0.0,557263.7,background getting brithger whitish blue 
192,0.708,8813.3,13814.4,16647.6,18013.3,10163.4,13091.8,15830.3,9343.5,13007.6,16581.8,10633.9,30725.7,20169.9,8658.3,12935.9,17148.3,19875.0,15002.3,17144.6,0.0,833042.0,
193,0.912,14537.5,15901.2,13596.7,10608.0,17364.7,15767.7,13170.4,14289.2,14940.2,8361.5,9920.9,11952.1,9662.4,12839.7,73947.6,10128.5,9510.4,10088.2,11159.3,0.0,910597.2,
194,0.451,12089.0,16395.9,17231.3,19386.6,14935.8,17143.5,16858.2,11775.0,14308.5,32946.0,10182.5,17042.6,35096.6,9944.6,45360.3,11343.0,25436.4,26291.9,26162.8,0.0,725485.9,
195,0.332,20440.2,22326.5,22248.4,26784.6,23826.3,24721.3,25606.2,29623.6,36493.8,30913.7,25171.9,33894.8,32560.4,25520.5,31575.5,27000.0,28849.5,31564.7,35641.0,0.0,610798.6,
196,0.543,11768.4,15393.9,24778.1,21242.2,17970.8,22539.2,24198.7,15844.7,24007.7,14938.3,14196.4,16933.6,18452.9,12728.7,17761.5,15823.5,16531.9,23538.6,19129.9,0.0,816351.2,like a whitish blue overlay between me and all the purple red static 
197,0.468,19786.4,21851.7,21105.1,15398.6,18889.3,17787.6,16186.7,14520.4,15116.9,8501.0,15031.3,15292.3,10813.1,14087.9,19457.2,14157.6,14229.0,13285.6,11021.4,0.0,1181636.0,
198,0.465,9462.8,17372.4,25031.5,18571.6,12412.8,15073.8,15978.9,8076.4,11528.3,9350.8,6977.6,8486.1,10993.4,7726.2,64993.0,6340.9,7522.6,13302.3,14294.8,0.0,763219.5,
199,0.906,11693.9,12791.8,16979.4,17368.8,10563.9,12650.2,15137.5,11238.3,13337.3,13270.8,8314.6,16452.3,15577.7,8928.8,33848.9,9509.7,14398.9,15648.6,17909.1,0.0,704323.9,
200,0.501,15349.4,22068.7,24692.8,33324.5,30173.3,29909.8,31389.1,24299.3,30873.4,31488.7,11505.9,49971.2,38473.6,11699.0,35292.1,19618.2,48465.9,33161.6,25445.8,0.0,1088574.7,
201,0.587,10633.7,12318.7,15334.2,11874.5,16107.4,17408.3,15865.3,19601.7,24108.5,14809.9,19480.7,75480.2,23987.0,10714.9,68760.0,59712.2,22504.4,17123.6,15228.4,0.0,1202217.1,
202,0.224,15379.1,17513.6,16762.9,14061.6,16118.9,15380.7,14750.2,14968.8,19508.2,18880.2,15344.0,67683.3,25484.4,13047.2,31380.3,39294.5,35470.9,15687.5,20314.0,0.0,713978.1,
203,0.427,6645.9,7604.2,20807.6,8875.6,7528.4,8628.4,8278.0,8496.6,16534.0,15211.3,10801.3,36510.4,21352.1,10609.2,41058.1,17421.7,23272.8,12842.1,11656.9,0.0,796408.5,that's still there flickering 
204,0.795,13070.0,17589.7,20054.6,20132.2,14439.0,18892.4,20012.5,9623.5,16469.3,17754.5,4616.1,30120.4,24780.5,7909.0,32284.1,13571.4,15724.7,23028.9,20843.2,0.0,1159263.9,
205,0.68,13648.6,19172.7,26959.7,30379.8,18746.1,22298.3,26522.3,18972.8,25002.8,22247.4,11835.9,57081.0,31545.1,11200.8,44964.8,44093.5,28891.1,28944.6,27390.8,0.0,728600.7,
206,0.272,7187.3,9763.4,12803.8,17199.4,10497.2,13365.2,16736.5,11249.8,18091.5,14934.0,7954.2,38848.1,23027.0,6927.2,37591.8,19230.5,22296.0,22129.3,15658.9,0.0,1003200.8,
207,0.485,9220.1,10617.7,12311.4,10740.6,11874.2,11116.2,11284.3,16159.5,17634.2,14809.9,16992.9,53499.5,23723.3,13856.2,42185.0,43696.5,27395.4,15223.2,13308.7,0.0,681473.0,
208,0.357,8543.8,14493.7,23104.8,23047.3,15481.0,21594.5,23054.6,13872.3,22949.0,12988.6,14296.7,22595.7,15911.0,16915.7,46569.6,25235.5,18621.4,21236.8,27182.7,0.0,732148.3,
209,0.402,24532.2,30145.8,45948.8,49965.3,32347.7,39478.9,44389.3,26466.7,37381.7,46563.8,20842.3,30151.2,42213.6,22618.2,70738.5,20305.1,35700.9,47630.6,47852.5,0.0,556095.3,
210,0.23,5599.9,6842.1,8072.7,7269.2,8199.5,10463.2,8614.4,9793.4,15478.9,7748.6,8436.3,17763.0,8744.6,9955.3,49189.6,14400.2,11377.7,8402.2,7476.6,0.0,649834.3,
211,0.304,14134.2,14105.2,14451.3,15980.1,13781.8,13616.0,15548.3,18456.8,17582.3,13270.2,14674.2,27559.3,15377.4,12603.3,28009.0,34247.9,34767.6,13676.4,14625.0,0.0,749891.6,
212,0.248,9292.1,11195.8,11986.4,12675.5,11179.0,12216.4,11280.1,10730.0,15209.9,11172.9,11892.0,74845.3,21603.7,8977.1,63287.3,37825.1,42551.1,13309.5,12474.6,0.0,747951.1,
213,0.354,13737.5,17933.4,27926.4,21973.6,15768.0,19020.5,20523.2,20198.3,26600.7,33196.9,15157.9,94651.7,51369.5,9342.2,59508.1,43341.5,83949.6,28884.8,23064.3,0.0,785321.0,
214,0.328,14472.7,20591.7,22422.3,13321.3,17066.7,21327.4,16909.4,16671.2,18933.2,12561.2,7221.1,12936.0,10421.3,12569.2,37645.7,10551.2,13972.1,12860.2,11894.0,0.0,721094.7,
215,6.625,12827.7,24315.8,39435.2,8270.0,12896.1,12589.8,9255.0,12108.6,12893.5,11279.1,14349.3,28100.1,14832.0,9871.6,19968.1,32741.7,28038.9,11071.7,8716.4,0.0,650810.8,
216,0.828,13389.2,15037.0,17509.1,12761.3,13442.4,14610.4,14783.1,11796.1,16359.4,14039.6,17296.5,25301.4,15087.6,15352.5,64061.4,23153.6,25759.5,10442.6,13577.5,0.0,593698.1,
217,0.321,11085.2,13113.5,17440.2,13082.0,15202.7,15658.7,15876.7,14981.2,17578.0,14069.0,12536.4,18781.7,14675.7,13429.0,14600.8,11470.8,17584.5,16192.4,12952.4,0.0,787446.2,
218,0.498,8977.0,8131.3,23988.0,8573.2,9623.6,10655.2,10894.5,14793.6,15496.9,8656.0,7917.6,19840.6,11290.2,11137.0,25383.3,10787.3,12880.2,10783.9,6754.7,0.0,591132.4,
219,0.393,13153.5,8779.1,13343.1,7902.5,12486.7,12063.2,8169.3,16363.7,17333.8,5910.1,22369.4,82031.2,19453.6,20320.5,40195.8,52099.5,34417.5,7226.7,7355.1,0.0,643867.9,
220,0.667,22552.7,17424.1,24405.4,14979.2,19503.4,17600.4,15897.4,22492.2,21049.9,16116.0,28768.2,84637.2,24137.7,24258.4,33817.1,69392.7,47689.6,15050.8,12393.2,0.0,733931.4,
221,7.232,12550.5,19621.3,23972.6,18047.9,15087.2,18895.2,18372.3,13689.4,17816.7,20098.2,12602.2,51861.2,21237.8,11555.4,38611.3,21375.3,39009.6,15593.7,16301.1,0.0,626490.9,
222,0.34,18471.1,23130.8,36975.1,24533.1,22630.1,25221.0,25105.7,20023.5,23175.2,15069.1,11867.1,21361.8,16970.3,15921.5,22405.9,17887.4,17247.8,20821.7,26027.5,0.0,620312.5,
223,0.453,33475.9,36157.7,43808.1,37836.9,33295.1,35996.7,35342.6,34966.3,40449.4,35590.6,32583.3,40515.9,37422.6,33362.1,86169.8,37149.9,35573.9,38805.9,39376.4,0.0,662905.5,
224,0.424,25551.3,26790.2,21755.9,25561.7,30269.0,31580.4,28481.8,33559.2,37776.5,20151.7,24896.5,35876.9,28506.3,26473.2,48625.6,28777.7,29255.2,28891.4,20726.2,0.0,671019.7,
225,0.287,4587.8,9412.1,10684.4,11754.1,7792.2,11565.2,12500.1,4722.7,11730.2,8637.9,6447.7,16400.6,12714.5,4881.0,37344.6,10699.0,17401.8,10279.7,11163.8,0.0,449172.0,
226,0.312,24883.9,26342.1,32492.0,24257.7,26409.4,28780.0,30166.6,24386.8,27433.6,24764.5,29235.1,34591.8,25390.0,26466.2,121847.4,39007.0,36116.8,22756.6,23182.8,0.0,591409.7,
227,0.253,10276.8,10963.0,22867.9,12468.3,10525.4,13161.9,13282.8,12236.4,13106.0,15898.3,9255.8,36248.3,14526.5,9646.8,24671.4,17761.3,22540.1,10854.0,15428.4,0.0,770848.0,
228,0.281,14154.4,18571.5,20893.9,20501.0,20767.2,23119.2,22363.7,16033.4,19337.3,15914.4,10223.7,65177.6,18998.7,13983.5,17167.8,18866.0,28147.0,18279.0,23145.1,0.0,626229.0,
229,0.292,9516.9,9475.6,14352.5,14895.5,12866.2,14772.0,16631.1,10298.2,18752.7,25977.9,12426.4,90258.5,46219.5,6175.5,121657.6,59047.4,71551.1,21825.9,22258.4,0.0,765924.0,
230,0.288,20641.4,24243.4,28665.3,26420.1,26076.7,28726.4,28435.0,23478.9,32835.6,30468.3,13966.9,85800.2,48011.0,15912.0,40715.5,29170.9,53107.3,30956.7,30065.0,0.0,574255.0,
231,0.244,14669.1,15883.4,16136.0,21582.2,15545.9,16634.8,19242.0,15824.7,24423.2,25284.2,14179.6,103326.8,48107.3,15694.7,56244.1,72324.7,77572.0,25538.9,25155.4,0.0,838357.3,
232,0.415,10806.6,14852.9,14809.2,11249.8,14319.2,16851.4,14362.7,12575.2,14307.8,10230.9,11388.3,47144.9,9619.9,11165.6,57661.1,27200.5,19378.7,9895.3,13527.4,0.0,737142.5,
233,0.403,23521.6,31313.4,39210.2,30667.5,30616.8,32313.1,33248.6,28639.2,42202.6,38857.4,26694.7,72841.3,48180.9,26811.2,69262.2,29999.4,55003.7,36017.7,33972.9,0.0,714430.7,
234,0.34,13143.6,16769.0,26911.3,21751.8,24274.4,30210.0,28316.8,17749.5,39656.8,18947.0,6845.3,59427.0,36650.5,8120.8,19167.3,13623.5,43227.1,29238.1,16815.6,0.0,788827.2,
235,0.247,13600.3,17934.4,23607.3,22629.8,14202.2,18462.1,20597.2,9901.6,13533.2,14287.2,8859.8,9542.7,9549.4,11630.9,13995.2,14551.1,9377.8,14572.1,18561.2,0.0,839222.4,
236,0.364,11288.6,13399.7,20954.6,13974.5,13964.9,15109.5,15232.9,14134.4,17354.4,16086.3,9973.4,10191.1,14547.7,13790.8,34636.9,10231.6,11622.8,16738.4,18298.7,0.0,852324.2,
237,0.648,21755.3,26678.4,26834.2,28714.8,23905.5,28919.5,28143.3,21718.7,25608.7,32623.0,19051.3,39012.8,30628.1,18990.0,31077.4,36018.5,45232.3,26936.7,35933.8,0.0,722588.4,
238,0.322,13950.4,12003.9,10640.4,8839.3,14856.8,14496.9,12570.2,11306.5,17697.9,24161.7,21024.8,58884.2,29419.4,9918.0,33187.2,63679.9,77457.0,11990.9,14467.7,0.0,760090.8,
239,0.509,11056.6,20135.9,26143.7,21853.7,15460.0,21132.2,19589.6,14260.3,17141.1,24355.1,49481.9,129201.4,34816.9,14551.2,123904.8,176251.3,85789.7,19139.2,18435.8,0.0,1355343.3,body getting more calm
240,0.539,19385.1,27668.9,36074.0,33926.3,24334.4,30658.8,33164.1,23005.2,28299.7,23128.7,29908.5,107035.0,33244.9,19663.6,65485.6,86065.3,64391.1,29196.7,23357.2,0.0,980395.4,
241,0.278,6543.1,9236.7,13832.9,12931.3,9220.7,11410.5,12217.6,7071.6,12516.5,13616.7,11285.6,64181.9,22547.4,5529.0,28876.8,43661.5,33001.0,16867.4,17187.7,0.0,922651.2,
242,0.234,8581.8,8248.0,8635.0,8973.6,7810.9,8446.1,7598.1,7972.5,8972.7,12431.4,5883.6,11984.5,13854.7,8367.3,14892.2,6392.5,11745.3,10969.6,14061.9,0.0,1168820.4,
243,0.32,20703.1,21441.7,22591.2,19458.1,25695.8,26624.4,26038.8,22201.0,30931.2,18692.0,16479.2,45528.8,28128.6,16482.4,42832.8,29916.3,31408.9,22629.2,18265.2,0.0,948310.9,
244,0.249,11459.5,12970.7,16536.6,12051.4,12662.8,14866.7,13263.4,9793.7,14060.1,10371.7,7720.7,30336.2,10455.3,8223.0,14033.0,19344.6,18476.6,11220.0,12908.9,0.0,1062523.3,
245,0.269,11573.2,14437.1,11362.1,12474.5,12999.9,13646.0,12688.5,11950.2,14385.6,11653.8,9737.4,10922.2,13087.4,8920.9,42695.4,14910.4,13575.2,12184.8,17260.9,0.0,1224898.3,
246,0.261,12021.6,12684.8,15655.4,13242.9,13913.2,16030.9,14475.1,13495.8,17167.9,20010.4,13978.0,15254.6,17718.3,14443.2,25250.5,12662.7,15036.3,16782.9,24286.2,0.0,1223566.9,
247,0.234,7746.5,13691.7,17040.6,10330.1,10723.4,11742.1,11343.6,6688.7,6598.7,11835.8,5832.6,10493.2,11855.1,5243.4,19082.0,9338.8,11348.2,9207.4,14457.0,0.0,1220537.3,there's like a whitish blueish iridescent overlay on all the purple and pink static
248,0.524,19975.1,25078.5,25273.4,26272.8,22422.4,24755.4,25856.4,16119.1,17394.6,10786.9,14729.5,11841.3,10383.6,16346.6,25430.9,11233.2,10138.2,17041.6,20289.8,0.0,1224711.5,
249,0.47,9362.5,14758.4,17542.7,17783.7,14723.7,16446.4,15868.5,11109.8,13389.8,16062.5,8309.5,21353.8,18776.8,8336.1,15693.0,13809.1,18169.1,15765.0,16518.9,0.0,1056518.7,
250,0.659,11051.5,16709.3,19774.9,17639.8,16728.1,16576.5,17791.2,10749.2,12528.7,9856.6,9259.0,13944.9,13484.8,7672.3,36939.5,10795.7,11673.1,15205.2,13019.0,0.0,1113549.6,
251,0.643,7106.8,8356.3,13829.0,14723.1,7013.1,8110.7,9920.1,8232.3,11009.8,18080.5,9543.8,20320.1,18306.0,7461.3,60859.7,16021.0,21210.3,13697.5,18121.9,0.0,1069799.2,
252,0.594,8580.5,7690.8,11177.7,12384.2,9570.9,10266.3,11882.7,11038.9,15836.8,16856.5,13230.3,15939.7,16821.5,10062.5,30326.4,17532.3,20948.9,14480.1,17887.7,0.0,1188699.3,
253,0.395,18382.7,18946.3,24581.5,26356.5,19692.1,19351.1,21134.2,26510.3,22269.7,15213.2,16384.7,22594.8,16835.8,20602.6,35308.1,18404.7,11983.6,20788.9,17500.7,0.0,785863.2,
254,0.225,9126.8,10934.8,10639.5,9396.6,13326.5,14240.2,12937.6,13810.2,11089.3,7668.4,11330.2,11868.4,8390.2,8763.6,18165.6,10099.9,8648.9,9122.9,9792.2,0.0,1265867.1,
255,0.617,8067.3,13933.2,18941.3,14675.2,10729.4,13978.3,13581.8,8657.8,11984.2,8780.0,5309.8,12421.4,11202.8,6708.6,57513.2,8110.1,12150.6,11681.7,10554.4,0.0,849907.1,makes it less staticky kind of fills in a lot of spaces
256,0.81,11770.2,16998.4,19655.8,20474.7,14365.1,16307.7,18397.0,17054.5,20070.7,19839.2,15005.8,28902.1,19922.8,13493.6,18988.7,26204.3,21379.0,19083.0,19677.8,0.0,1234363.1,
257,0.5,18867.8,18925.4,21635.4,26197.5,22228.5,25742.5,27929.1,24149.0,31581.5,20634.6,20387.7,29750.6,28651.4,17336.3,26547.6,27784.5,27280.4,41427.1,21440.3,0.0,999727.3,
258,0.258,6718.9,6414.1,7275.5,6232.9,5120.7,4678.5,4409.1,7768.0,6576.3,5815.0,8656.6,14377.1,9009.1,8607.4,8490.7,10209.4,8158.1,5509.4,5377.6,0.0,1132802.5,
259,0.548,7916.7,8895.7,8245.4,5603.0,7690.8,5548.4,5756.3,7287.3,6357.5,9088.9,10710.1,8699.3,7077.1,8082.3,7431.3,14828.4,14282.9,5378.5,8919.0,0.0,1015040.3,
260,0.445,10322.7,10115.9,12061.5,12320.0,11126.6,11505.6,10814.3,12133.5,16477.4,14460.6,9049.0,23121.9,17395.7,11810.3,21534.0,11334.3,13154.3,14152.0,15734.1,0.0,960870.2,
261,0.233,10755.8,13428.5,11038.6,10696.1,12889.5,15106.8,14335.1,16547.4,14871.6,11929.5,21152.8,10021.8,11758.7,23820.0,26799.8,11203.6,11174.3,14810.3,16836.0,0.0,1014071.6,
262,0.322,7690.5,8572.6,11148.2,17241.4,10420.1,13623.7,17584.9,14260.3,15503.5,17035.3,11419.1,17653.7,18265.7,9284.6,29143.1,16124.2,13782.9,18546.6,19357.4,0.0,792951.7,
263,0.252,13321.0,17574.6,18172.4,14295.0,15160.4,16021.7,16864.6,10263.9,16520.0,8895.3,6116.9,17277.6,11449.0,7142.7,28995.7,10077.1,11597.7,13561.7,10074.9,0.0,662057.6,
264,0.344,10798.8,14342.3,12540.3,9909.9,14448.0,13703.1,12490.6,14219.3,10241.7,7971.6,7112.2,13090.4,10818.9,7373.6,69926.2,8736.2,9953.6,12748.3,8027.0,0.0,976423.7,
265,0.405,13434.7,10564.0,11157.8,12432.8,12950.1,10300.9,12306.0,13070.8,10917.1,11877.7,9829.2,7050.1,9350.5,11514.5,24304.2,11662.7,9426.0,15234.5,17277.7,0.0,830036.0,
266,0.45,21763.6,21435.6,21355.4,24457.6,23059.7,23340.1,30811.7,20346.9,19281.6,19186.8,14155.8,15716.9,19723.1,15512.0,44596.4,13108.6,15085.7,35807.5,23271.2,0.0,1167229.7,
267,0.256,11835.5,10797.9,11432.7,12786.2,15138.9,14452.1,13744.8,17323.5,20319.0,18335.9,9078.8,18831.1,20062.1,10605.7,31927.0,10973.3,16672.0,16540.6,20483.6,0.0,938334.6,
268,0.412,7861.1,10572.6,13022.3,14317.7,10007.7,12265.6,11455.3,10185.6,11088.1,14729.6,10882.3,11661.1,12868.7,7796.2,27804.6,14340.4,14406.6,13399.2,18227.5,0.0,902731.3,
269,0.234,9830.9,8881.1,11501.1,14214.7,11497.8,11742.6,13875.3,15392.0,18295.4,21801.7,14422.7,22275.8,23367.3,14165.9,24006.0,15677.5,16557.8,20495.4,26220.3,0.0,848441.8,
270,0.254,12751.3,12386.8,15039.7,16112.6,13703.0,17971.6,18923.8,15064.3,18266.1,16865.1,13903.7,17396.2,16869.6,14093.4,22227.5,15915.7,18178.8,13696.6,17389.4,0.0,1121098.7,
271,0.21,13742.5,14047.1,14701.5,14770.9,15664.0,17377.8,16149.3,15603.1,19101.2,17436.1,11667.7,17493.8,16183.5,12092.4,25600.5,13801.3,21113.4,13043.4,19001.9,0.0,1134755.1,
272,0.223,11190.0,10848.8,7334.2,5782.3,10204.3,9112.1,7059.5,12143.1,9054.3,5876.1,13179.0,22669.9,10125.3,13905.1,17386.9,15253.1,11865.3,6965.9,6879.9,0.0,1007634.7,
273,0.227,4425.9,5780.6,6288.9,7452.7,6210.2,7656.6,7429.9,8065.4,10132.1,21722.6,10769.4,31407.6,17723.1,8007.4,19010.9,16970.6,35467.2,9131.1,16338.4,0.0,816858.4,
274,0.245,7718.8,8720.2,7442.8,4623.4,9966.1,9748.5,6362.0,10749.0,14402.9,7411.1,7233.1,11670.9,9698.4,7576.1,40849.5,10241.9,11842.1,6317.8,8529.5,0.0,908925.2,
275,0.241,14274.7,21777.3,21348.9,25959.6,23067.8,28171.5,23811.1,16425.6,25764.4,26342.6,9455.8,17943.7,26443.1,7515.6,57623.1,13644.6,21244.0,27434.6,29689.2,0.0,991206.8,
276,0.398,28165.2,32124.8,28764.5,27243.8,32318.0,32429.3,29018.0,32329.5,33114.0,38587.1,29239.1,33556.6,40093.3,29600.9,70420.1,30784.7,42447.1,36084.9,36386.2,0.0,1027399.3,
277,0.322,9323.1,10815.7,10645.0,6391.1,9411.1,8997.5,6806.6,7320.9,9782.3,9016.7,13400.6,13673.7,10516.9,13714.1,25766.7,17060.7,12551.8,7901.5,11630.8,0.0,1056540.4,
278,0.262,13079.9,15321.2,16967.1,11358.1,14981.0,19693.5,16922.8,17701.0,19282.6,14514.3,12951.1,14893.7,13819.5,16450.2,20030.9,10412.6,11995.8,14809.6,15097.1,0.0,1195775.8,
279,0.417,12202.6,14847.9,18575.0,19553.9,15567.9,17343.4,19503.4,18151.1,23447.3,17827.8,12612.2,22695.4,23052.9,12706.5,15463.2,14869.9,18991.2,20674.2,19969.8,0.0,1207153.8,
280,0.377,21803.1,22431.0,21336.3,18755.0,23110.8,24220.5,20120.1,24759.7,19909.8,15952.3,22571.5,21604.9,19093.4,25296.2,26567.8,22291.7,16100.2,18579.7,18007.7,0.0,893835.3,
281,0.495,9906.6,12378.6,13091.8,14351.5,14133.7,14967.9,15869.9,15123.6,19086.8,16473.1,9890.7,14849.0,17393.0,11115.7,14883.6,8478.2,12384.4,15681.7,16694.8,0.0,1146118.4,
282,0.388,34167.4,35382.8,39685.8,32548.2,34142.0,34185.3,34414.9,29726.2,29712.3,30153.0,31473.6,35183.5,32767.2,29129.1,28591.5,33221.4,35846.2,26941.8,29288.0,0.0,1300111.4,
283,0.232,10703.0,11877.5,13683.6,15121.0,13318.5,14836.0,14857.6,13173.8,15087.2,19684.2,16970.5,35747.3,23748.7,12785.0,22875.2,41894.8,51651.0,15764.8,16982.0,0.0,1085300.3,
284,0.223,9993.4,11637.5,11201.7,12382.4,12224.7,12710.6,12836.4,11097.9,12540.7,11452.2,8157.4,14689.6,14838.0,8785.1,27249.1,7933.7,12336.8,11576.7,16274.3,0.0,1054123.4,
285,0.242,11007.1,9717.6,9430.0,7893.5,9549.0,9381.7,8866.5,10790.4,12627.5,12304.0,9531.6,17197.4,15138.4,13131.4,11645.9,11305.0,13414.0,10621.5,13345.5,0.0,1402707.0,
286,0.234,13779.8,17740.1,16591.1,12068.8,16093.6,15435.2,13898.1,17519.6,17295.5,9698.8,18044.0,24177.4,11870.9,15034.5,15575.0,22795.5,13393.3,11306.7,11825.5,0.0,1187036.4,
287,0.223,5714.2,7494.4,8034.6,7741.5,6767.0,6013.0,6083.6,8411.4,6697.3,9620.1,7271.0,7509.2,8090.1,8627.2,14523.8,6960.6,6663.7,7779.5,12423.5,0.0,1206988.0,
288,0.254,8914.2,15760.8,16857.8,15089.9,14209.5,16757.1,16967.6,11262.0,18047.1,19824.0,7133.4,22129.8,18280.2,6371.3,11750.6,11973.4,20677.2,17583.3,21205.1,0.0,1259854.4,
289,0.372,12514.6,15495.3,17760.7,16593.4,17360.7,17621.1,17756.0,14420.5,21553.5,15761.9,10639.6,16255.2,17772.4,12392.0,11917.6,10716.5,14499.9,20053.3,21160.2,0.0,1181973.9,
290,0.277,17239.7,13252.4,13376.0,9636.7,15828.2,14339.2,12025.0,18838.6,15794.6,19186.4,29970.3,25878.9,17931.6,22622.7,33617.5,29478.3,24205.3,12672.4,12046.5,0.0,1240154.5,
291,0.304,44946.8,47284.0,49361.0,39653.5,45109.4,45350.5,41873.6,46901.6,51669.1,36445.2,29601.6,54274.2,43148.2,39229.3,43028.9,30752.9,49950.9,40639.7,46850.5,0.0,1182667.2,
292,0.229,8015.8,8781.7,7273.9,9956.8,9994.1,10998.3,10066.4,10653.8,15606.2,17777.4,6594.1,57143.1,26076.2,6722.4,21685.3,23197.0,29593.5,13037.7,12652.1,0.0,1165404.3,
293,0.299,10792.8,16314.5,18054.0,16161.7,17968.9,24321.3,22515.1,15055.5,31233.4,18080.0,9116.0,56874.9,29759.3,10971.9,63341.4,15507.8,26731.3,23561.6,19590.7,0.0,1239904.3,
294,0.247,16961.9,16529.1,22182.3,23705.6,17804.6,20329.2,23813.2,18585.2,25250.0,28888.1,15834.2,27840.4,26886.8,14465.8,30018.2,20311.1,31470.9,23458.4,27117.8,0.0,1120596.4,
295,0.308,6498.8,7565.7,11040.5,16077.2,8200.2,11633.3,14683.9,7815.5,11498.8,13792.5,6611.1,15373.5,14813.6,7044.7,43595.6,8709.8,14224.2,15030.2,15920.2,0.0,1092743.1,
296,0.416,23445.5,27511.7,33445.7,31314.5,23158.3,28505.1,26786.6,20058.5,20673.1,16821.3,17503.4,13844.4,15413.1,20609.1,77016.5,12216.1,13221.6,18948.9,23267.2,0.0,1331252.9,it's breathing back and forth purple and pink and whitish blue overlay is kind of breathing back and forth towards and away from me.
297,0.193,6718.6,6373.2,6531.9,8156.7,7374.7,8344.4,9328.0,7352.8,8992.9,6202.3,6600.9,11292.4,9581.5,7508.9,34875.0,8786.9,5859.4,8229.7,6673.7,0.0,1241235.6,
298,0.329,16101.1,18076.7,21906.2,23528.8,16239.5,18601.9,19336.6,14795.6,20185.1,23584.5,19142.4,17915.5,20624.7,17654.8,44115.3,22745.9,22472.2,20655.5,29236.6,0.0,1560651.6,
299,0.232,11757.0,15288.1,15192.5,15495.9,12743.4,12583.8,13105.4,15254.2,14261.8,17004.2,18573.8,29230.2,17310.5,15159.5,40719.3,28422.1,18616.3,14200.5,19425.4,0.0,1608343.3,
300,0.409,12222.7,12374.7,13968.0,14855.0,12383.1,14316.0,13375.4,14994.6,13787.5,14388.9,17755.9,15200.0,11967.8,17925.7,52687.0,18376.1,21038.6,13733.9,13240.6,0.0,1436468.1,
301,0.447,11168.3,17056.8,26643.2,22765.2,15942.7,19751.4,21407.8,15000.8,26378.2,25770.3,13511.3,94574.4,37652.8,11327.7,81362.1,43480.5,55870.1,21571.1,20506.2,0.0,1210198.2,
302,0.294,10855.9,14697.1,14195.5,11502.5,14569.4,14916.7,15395.9,11580.8,14521.5,9190.9,10409.0,68279.7,16126.6,7905.0,50404.3,32158.3,20004.9,11354.3,9775.4,0.0,1154466.7,
303,0.289,11883.0,15459.7,23165.5,13969.6,14864.2,16614.6,17391.5,12774.7,13140.5,7743.0,9012.0,28536.4,11764.5,10345.5,146616.4,12380.0,11961.9,11854.9,8619.8,0.0,1359114.0,
304,0.421,7534.2,7518.2,10039.3,12271.9,8481.5,8818.8,10428.5,9545.9,9713.9,6558.0,10292.9,19069.3,10453.6,7288.0,73044.1,22495.2,9590.7,9835.0,13373.5,0.0,1240903.1,
305,0.511,10248.4,11666.8,15234.3,13399.3,11685.7,14833.5,14998.3,11226.7,16909.4,13159.5,11508.0,23028.4,16659.9,10024.2,102136.5,26641.1,20139.5,15309.4,11904.2,0.0,1090485.8,
306,0.285,12790.1,17989.9,26215.6,24515.8,16726.2,20484.6,20162.6,13647.5,22616.4,19065.0,10647.2,37328.1,22006.3,12902.0,88428.1,19881.8,20777.7,19381.0,22839.4,0.0,1003430.1,
307,0.257,13984.3,14350.0,20989.4,18386.7,18668.1,21977.5,22984.9,19772.3,28124.3,17935.4,12083.8,82665.8,34306.9,12137.4,49619.1,34073.8,58944.6,24724.1,17921.3,0.0,1124325.8,
308,0.338,19945.0,32704.0,38373.1,29652.0,30372.6,36084.8,34194.8,25624.6,45411.2,27496.9,16292.9,100814.8,34202.2,12938.2,37928.1,44459.7,37732.6,29407.5,30805.9,0.0,972997.4,
309,0.239,8371.2,13781.4,17955.1,17361.3,12964.8,18126.1,19129.5,12016.0,23283.9,14980.2,7645.8,47388.1,19781.7,9925.2,27069.1,14859.5,14263.2,17597.6,21551.8,0.0,1061354.2,
310,0.26,6827.6,9270.5,9052.6,7310.4,8032.1,8240.3,7990.3,6959.2,9760.2,5496.3,6437.1,15281.8,8872.7,6272.7,68535.3,12080.1,10705.9,8640.5,5210.9,0.0,1116392.2,
311,0.269,8547.1,11921.0,11323.7,9054.1,10148.0,11942.5,11759.5,7992.1,14622.1,8369.9,6535.8,13213.5,12044.3,5374.5,31098.6,8924.2,10361.0,12513.7,12461.9,0.0,1212441.6,
312,0.305,14106.7,15137.6,16967.6,11787.1,16406.0,17097.8,15186.7,15382.8,14387.5,17911.2,18339.8,22414.9,18707.4,15574.0,38154.6,26267.4,19939.6,14755.2,16507.3,0.0,1156867.1,
313,0.239,6458.8,8977.1,9240.7,8556.5,8232.9,8547.0,8317.0,6565.6,11827.8,11137.9,5960.0,71256.5,25415.1,5525.9,17628.4,26662.2,35079.4,10954.3,9985.9,0.0,1148476.4,
314,0.318,21771.1,22135.4,25516.0,26563.4,22013.4,24692.0,28298.7,25390.5,27877.4,31112.8,27826.8,102548.8,41822.4,24963.2,61954.0,69051.3,64693.7,22364.2,27604.0,0.0,1351280.0,
315,0.302,23876.8,35253.5,44636.6,41916.9,37053.1,44899.8,46245.8,33536.1,47751.6,40821.5,25240.0,50959.7,42463.2,25669.5,30349.2,34672.2,42842.2,44001.6,44122.9,0.0,1356534.8,
316,0.312,9295.2,11304.2,11078.8,11446.7,10714.3,11783.6,11235.8,10482.9,10368.8,13014.9,7415.5,11906.6,11956.1,10048.5,8583.1,7113.9,11312.7,10602.0,11341.0,0.0,1490669.5,
317,0.248,6219.7,8535.0,8881.9,14126.2,8813.9,10144.2,11273.0,12255.3,11697.4,14793.1,11994.0,16078.9,10111.3,10368.7,17668.4,17738.6,10214.5,14069.1,19175.5,0.0,1700480.7,
318,0.356,47570.0,49048.2,45295.2,34814.7,49560.2,48310.6,42781.9,51665.0,50728.5,33059.7,45823.9,76587.6,42644.1,47667.0,56740.6,64972.8,53745.9,36185.8,36799.0,0.0,1430576.9,
319,0.371,15729.6,19873.2,22558.9,25332.6,20734.0,23415.1,23326.6,20507.0,25242.6,29469.7,14057.6,38576.4,30534.7,13677.8,39618.9,20752.9,31531.4,26648.0,32105.6,0.0,1507908.4,
320,0.272,8776.1,11480.8,17280.6,23224.1,12748.7,15641.1,19055.6,9710.5,15300.0,19504.2,7906.2,25773.7,18829.6,6968.4,10185.2,12492.3,13334.6,18839.4,31717.2,0.0,1440271.4,
321,0.272,15531.4,18468.7,17848.8,18193.5,19552.9,20536.5,18678.2,20531.1,21756.2,19936.3,21034.7,42689.3,25193.1,15356.6,34879.3,40541.5,27551.1,20050.7,20270.7,0.0,1492723.8,
322,0.264,14683.7,15504.7,17856.3,13408.2,15552.3,17569.9,14666.8,7446.1,10435.8,6758.7,5512.7,23218.7,10113.3,7114.0,11922.5,7029.9,19687.3,11013.0,11346.0,0.0,1351001.7,
323,888.751,232834.4,7804395.4,1633681.2,83998.7,21062.0,20961.7,282134.3,19054.0,22464.9,16734.9,16758.7,69220.1,16963.7,1083336.6,22491.4,31799.1,21100.6,13245.2,59756.3,0.0,2659245.0,
324,1142.31,14591.9,939432.4,301785.8,18645.3,17348.4,26289.4,55537.4,8625.5,10521.0,4751.2,9037.6,8827.5,5694.8,28404.3,22005.1,12973.4,8840.5,7358.9,8668.3,0.0,2279641.9,FRUITION-CALC
325,75.398,23327.7,22734.9,29897.4,29074.7,21751.5,25208.1,26794.6,14807.8,27803.2,49624.3,11996.5,71737.6,56993.7,11825.5,24694.3,51563.3,113256.6,30458.8,37830.9,0.0,1317340.5,
326,6.532,9816.2,13274.5,16849.3,13587.3,15290.9,17214.4,17687.9,16758.5,28812.7,39909.4,17331.8,114538.2,66721.4,8983.4,34624.4,64157.3,135229.6,25034.5,14272.6,0.0,1432344.5,
327,0.356,13223.3,18665.8,27944.2,32894.1,19726.2,25562.5,31655.0,11697.2,27077.2,42299.3,15830.7,79591.1,51481.0,5873.9,32776.6,84059.3,104833.5,34209.0,40884.7,0.0,3741089.4,
328,1.75,32881.4,33754.4,31653.1,30449.7,30014.4,30715.0,30328.4,29899.3,30561.2,50114.4,35035.4,100059.9,52524.5,25832.8,36578.6,65661.1,119774.8,30205.3,36993.8,0.0,1129726.7,
329,3.187,13254.2,17484.2,24106.6,20404.8,16924.6,21419.6,23239.6,18058.5,21808.6,18239.7,22951.6,54401.3,26017.8,14985.4,47754.5,36652.4,43993.6,21025.7,20736.8,0.0,2895909.0,
330,5.229,15345.2,15501.1,19928.2,16811.3,15892.8,20597.8,20020.8,22282.9,34230.7,28589.5,20111.4,132624.2,48344.3,19517.0,62348.1,80835.5,79827.7,26248.4,17790.9,0.0,2563917.7,
331,3.492,11657.8,14077.2,15542.3,15202.6,15613.6,19057.0,16217.7,15916.2,23440.2,11302.5,12151.5,54690.6,18992.9,11024.7,21383.7,34176.6,28321.8,14100.1,16193.6,0.0,1506591.4,
332,2.337,11059.1,15917.4,19217.2,17574.9,12739.6,16806.8,15448.6,10857.8,15764.8,17870.2,15726.2,106420.1,36880.7,3958.2,33777.1,106380.4,108682.0,15501.0,15369.5,0.0,1244771.0,
333,1.203,10025.8,16212.4,20486.6,17262.4,19380.0,25639.8,23962.5,13201.4,27781.3,22137.9,33428.7,120367.5,44697.8,11328.7,45631.8,107421.4,101693.3,21047.2,12002.8,0.0,1084998.7,
334,0.537,8302.2,11111.8,11128.5,14474.3,9541.7,11006.9,11343.9,10667.2,16216.3,35640.9,12340.5,63063.1,49409.4,11436.6,25850.8,29761.6,71007.7,20361.7,23990.3,0.0,914222.5,
335,0.41,32262.4,37550.9,39106.4,37221.1,36637.3,42472.3,39355.9,38392.0,41174.5,52099.1,28109.8,100072.6,57526.9,33247.0,48508.2,45042.8,87011.2,35942.2,39450.9,0.0,1253747.9,
336,0.348,21925.8,25529.3,28641.9,25446.6,26001.8,29088.8,29260.3,22328.8,31287.2,31090.0,22290.3,26175.9,29353.9,18458.4,18697.8,24200.7,50718.5,26217.6,31026.4,0.0,977541.4,
337,0.248,10752.3,18053.2,18275.2,14393.6,15346.7,19310.6,17498.6,13080.4,16959.9,11085.2,12426.5,19501.2,15083.6,13678.4,23207.0,14226.9,26158.4,14718.3,14503.3,0.0,1190342.0,
338,0.246,20021.5,24094.4,26087.3,26250.5,24046.7,27913.4,28746.1,23145.3,45354.4,34816.5,22275.9,166963.1,69846.8,11688.5,61999.1,87734.4,86515.7,38036.6,25866.3,0.0,1190889.4,
339,0.237,14339.6,15643.8,18385.0,18120.8,15186.7,16545.8,17929.0,18360.7,23956.1,43545.4,16007.4,123561.7,66458.0,12248.8,61349.1,51464.7,128183.1,26197.3,27632.9,0.0,1104873.2,
340,0.456,13575.1,14719.9,14129.0,16162.8,17337.4,16894.8,21105.4,20321.7,28820.2,27328.8,20663.8,96804.2,62801.6,15359.7,63983.5,70083.0,74283.6,25045.2,19724.2,0.0,910097.0,
341,0.318,14443.1,21483.8,21964.7,19370.4,19973.8,22552.6,22090.6,15926.0,24790.8,25026.3,16719.4,55301.4,35280.2,12326.7,27136.0,37691.3,54723.9,24939.9,22129.4,0.0,1932639.0,That  was  an  impermanent  suffering  to  a  fruition  on  the  whole  field  pulsing  away  from  me. 
342,0.272,10162.2,11036.5,13194.2,12356.9,11195.8,12317.1,14079.9,10002.9,16152.1,23947.8,12833.5,54875.0,30793.1,10861.5,25619.3,66295.0,76324.4,15662.1,14776.1,0.0,1233686.3,
343,0.407,32408.1,36867.7,42150.9,45910.7,36365.3,42543.8,42584.7,36573.0,42040.0,36181.4,26663.1,92032.2,50551.8,26748.2,36133.7,46763.3,72235.7,42318.4,33506.5,0.0,985147.1,
344,0.347,8592.5,9970.6,11817.9,14442.9,9591.3,10319.2,13155.4,10627.1,14546.3,21121.0,20349.0,42992.6,21301.6,10321.3,40688.6,39654.7,31416.5,14040.5,15223.6,0.0,791542.3,
345,0.512,25705.3,34373.4,37118.3,40050.2,37448.0,44042.5,41273.9,35624.7,51012.0,39064.7,30780.1,174721.1,80375.3,24126.6,112132.2,93199.3,120082.7,39474.8,34158.6,0.0,864566.4,
346,0.458,16854.0,26455.1,29967.6,28419.6,33838.8,43571.9,39613.6,30115.0,75375.3,31131.2,25807.8,307537.7,119151.2,13040.0,96673.9,129870.2,186860.6,51511.7,22554.7,0.0,1048617.9,
347,0.434,19189.4,23768.6,25831.3,25290.4,24531.5,30651.7,31252.3,28079.8,43128.5,38185.6,31876.8,248489.6,93097.3,17531.1,118436.1,170477.0,129295.0,39804.1,31110.8,0.0,842984.5,
348,0.705,11111.9,14492.4,19553.3,29517.0,16989.2,22694.8,28323.6,20425.7,48247.9,52310.7,17074.5,217624.0,113049.3,9349.0,71734.5,71773.6,93163.7,57977.2,43015.3,0.0,967253.9,
349,0.209,15533.5,14915.4,10354.5,10698.8,14472.0,13900.9,12797.9,14619.9,17978.1,28116.6,20855.1,123745.4,53780.3,13491.5,44552.1,77612.7,111578.7,18821.9,16688.3,0.0,1174664.3,
350,0.457,20549.4,21224.2,22524.3,29491.4,19245.5,22304.2,24141.1,17030.9,22149.5,50646.4,22958.4,62939.9,52549.2,23735.6,39716.3,40901.1,87243.2,31172.7,41083.5,0.0,882394.2,
351,0.494,16956.7,23729.3,31208.7,31964.8,23745.6,28782.8,31591.8,18484.3,31524.8,52939.6,21388.0,110130.7,69866.2,13927.4,45406.0,85000.1,148050.3,37594.0,35163.9,0.0,848179.3,
352,0.171,12727.4,14983.9,18692.6,22514.5,17015.3,20386.2,21513.3,14890.7,24826.9,18043.7,12357.9,86700.8,40485.9,13121.3,64266.9,49718.9,70344.4,27066.4,26302.4,0.0,1251627.1,
353,0.176,5661.0,6423.2,7384.6,7252.4,7959.0,8790.7,9008.1,13296.7,26337.2,21531.6,19022.7,163252.4,51851.1,7901.4,48383.5,106568.9,101050.3,16311.6,8107.9,0.0,1077394.6,
354,0.286,5148.0,6582.0,10151.1,9947.7,6384.2,7366.2,9229.7,4931.8,14211.5,28832.7,5736.1,94306.8,36407.3,4178.5,32838.4,26802.8,79842.1,11787.7,12899.0,0.0,1127693.9,
355,0.18,14035.1,20343.5,23640.1,18742.9,20517.0,25732.4,24873.8,16197.3,31920.6,25497.0,4769.5,139993.2,56430.6,6028.8,21088.8,29906.2,97817.0,24339.3,17986.7,0.0,1068389.8,
356,0.227,12879.8,14253.2,16294.4,16560.8,15897.2,18243.0,18440.9,16355.2,25478.3,33100.7,18308.1,142071.6,62014.8,10912.9,48995.8,86113.9,129325.1,23144.1,18783.7,0.0,944096.1,
357,0.398,17625.6,14299.9,11025.5,9889.1,13388.7,13551.9,10274.9,17286.7,15422.6,27475.0,33295.6,134467.1,40305.3,16307.2,80760.2,118728.4,113579.6,14474.4,17707.0,0.0,1102906.1,
358,0.173,22591.9,26807.3,33545.1,33168.5,26258.7,32120.7,32376.4,12105.5,19790.9,29449.4,21536.9,121577.8,40696.0,9556.6,25735.0,137316.4,148283.6,18584.2,25648.9,0.0,984021.1,
359,0.236,11528.9,14861.8,19957.2,22598.5,15452.3,19989.1,22237.5,11217.0,20549.7,20182.9,17734.4,62774.9,25529.0,11075.6,29569.5,76550.6,83046.7,16884.1,19147.2,0.0,1007298.3,Very  tranquil  afterglow.
360,0.783,20997.3,23147.0,20748.9,16799.4,26028.9,25115.9,21648.5,26599.2,40527.2,51678.9,28992.2,248741.4,113244.9,16216.0,71262.4,123534.6,212004.3,34762.8,22987.2,0.0,1010717.2,
361,0.764,29226.0,34691.5,35240.8,31906.9,36142.7,39704.4,37463.0,23377.6,49200.2,55426.6,39019.6,198424.7,103615.4,9951.0,43487.3,152404.3,167208.3,48033.1,20729.7,0.0,944850.6,
362,0.347,16595.7,21509.2,20268.7,21963.7,23915.0,23843.9,26097.6,20105.3,32698.2,40191.4,10569.4,136368.9,74557.4,14155.6,21115.6,29274.7,105575.7,32148.3,33029.3,0.0,907981.4,
363,0.433,16008.0,21010.9,25176.1,24236.4,26703.7,29436.2,31144.9,28865.3,32695.9,41958.6,34754.2,176764.4,64569.5,12692.6,70123.3,158075.9,185785.8,27441.4,20710.5,0.0,971360.3,
364,0.338,14401.6,19052.3,25407.3,28174.9,30927.1,32824.6,32839.9,32625.6,48502.8,63341.1,14368.1,166594.8,99165.4,6847.2,44659.6,70279.9,167298.1,48691.5,39810.0,0.0,858291.8,
365,0.372,15826.6,16566.1,11922.0,6688.5,20265.8,16613.5,12979.2,22375.1,29206.7,45573.6,24728.0,170341.4,71993.6,13971.5,50533.8,105750.4,214453.3,13842.4,8943.9,0.0,898936.3,
366,0.204,15648.5,17506.5,21329.6,19622.0,15731.8,20730.6,19910.8,11322.0,20538.0,19917.4,19625.0,48441.5,21750.8,13386.1,24191.7,51290.4,20732.2,19923.0,25760.0,0.0,938939.5,
367,0.172,7840.1,13577.1,13690.3,12897.0,12257.8,14663.7,14921.3,9035.7,21206.3,33562.7,38324.9,69770.1,36785.1,14172.3,39517.0,72238.9,86945.6,16503.2,25990.6,0.0,889218.5,
368,0.191,7428.9,10919.6,15164.2,14636.4,12414.4,19457.3,18752.6,16193.2,36080.0,30454.8,15630.6,214570.6,76881.2,9446.9,68299.6,56436.7,111208.3,26710.8,18869.7,0.0,913924.4,
369,0.202,17214.0,20436.0,15703.8,15878.4,19012.7,22094.8,18516.3,22102.3,29275.7,23885.0,37090.2,201839.2,53361.8,14054.4,93835.2,168835.9,130335.0,17863.9,20094.4,0.0,965729.4,
370,0.2,9763.6,12993.2,15523.2,14784.1,15502.5,18246.4,14902.2,11880.5,18662.2,10793.4,14023.9,46701.5,15079.5,9175.3,40591.9,50510.1,16913.3,14079.7,16564.1,0.0,929196.6,
371,0.374,23538.0,32495.4,36646.3,30389.0,31901.0,39361.7,37727.6,27395.3,40917.9,27439.3,22485.0,124099.8,43006.1,17720.8,39042.7,93843.6,44756.6,34253.9,21961.3,0.0,825051.5,
372,0.176,9510.2,11748.8,15785.2,15570.6,13199.7,18034.9,18487.8,17131.3,22929.6,21081.2,34758.8,142974.4,41845.9,10782.7,57532.2,142738.4,93727.6,22391.8,17667.4,0.0,860240.4,
373,0.241,20540.5,29255.0,31590.8,27143.2,28179.3,35733.7,34642.1,19832.7,39129.9,25905.3,39102.8,156175.9,60684.2,14825.1,56293.9,170133.3,101662.7,32219.4,22774.6,0.0,960537.2,
374,0.246,23419.1,22771.0,24366.3,22532.6,28077.0,31606.2,27469.7,24449.6,30044.4,28219.5,34869.5,60253.2,36056.6,30954.1,43619.6,33907.7,79588.5,21464.0,20009.5,0.0,981447.6,Dropping  back  down  into  the  body  to  enjoy  and  deepen  that  afterglow.  
375,1.2,14182.4,19146.1,23494.6,15068.6,15025.1,17506.6,16768.5,14536.2,22245.7,20041.2,16698.5,94650.3,34482.4,11202.1,32565.1,62503.1,83051.9,16355.0,15445.1,0.0,899927.1,
376,1.549,17455.0,32793.5,45702.0,44774.2,27957.1,37521.2,41413.9,21822.0,34106.1,46389.9,24336.5,92503.3,57069.3,18829.0,33158.2,72180.4,127139.7,36394.0,32210.8,0.0,1019839.6,
377,0.307,5813.4,9884.6,16427.9,16266.1,9675.5,14466.6,17020.0,8163.7,17483.2,48945.5,15430.4,166288.0,87297.3,7264.4,43180.5,84763.0,201015.6,25585.1,19694.2,0.0,943215.7,
378,0.609,15647.1,22542.6,27804.7,24185.9,22087.6,29228.8,29422.9,16624.2,32610.4,28380.2,36447.9,147083.2,50865.5,11552.5,64668.8,123197.5,94108.6,30957.2,23009.0,0.0,873143.2,
379,0.418,23458.0,28014.3,24737.6,22539.0,31023.1,31661.7,30164.4,25280.6,40215.3,29076.3,39430.6,187778.0,64630.5,13252.4,76369.8,183297.2,157073.8,28774.0,12773.5,0.0,908082.7,
380,0.493,21841.9,23830.3,21381.8,22441.6,28963.0,28629.5,26799.1,30838.5,36055.2,30770.9,31288.1,179114.7,63987.9,19314.7,53025.0,145917.8,158049.3,35849.9,21043.6,0.0,1047311.0,
381,0.755,9416.6,13020.0,12895.8,8885.5,11694.5,13881.6,11054.8,15096.0,15999.6,27725.5,38157.2,108427.3,34950.3,12466.1,56123.1,138318.2,100871.3,11197.5,10769.2,0.0,1044878.0,
382,0.22,27941.6,36443.0,38368.5,35821.5,40039.1,44393.5,44948.8,24246.0,54282.0,20602.4,23269.2,131088.4,37332.3,9542.8,44137.8,100501.5,49457.1,39129.8,26426.5,0.0,996928.4,
383,0.228,9392.9,10891.8,12832.0,14111.9,10837.7,12501.8,14156.1,19718.1,26111.0,21401.7,28386.1,174463.9,47936.2,14331.6,90914.4,86272.6,53364.0,17925.7,18091.1,0.0,960154.7,
384,0.21,18229.6,23794.0,30303.9,28333.9,30616.5,36462.6,37612.5,28298.4,46448.3,18250.8,27272.5,174530.1,51110.3,14890.8,164355.7,93853.4,44877.2,34453.2,22988.7,0.0,1062808.4,
385,0.218,12735.3,20339.9,23380.0,22820.8,19733.6,26875.1,26340.3,25155.4,41208.0,20385.9,25172.5,155165.6,55683.5,13373.8,92082.9,67802.3,37193.5,29597.7,21924.0,0.0,1037712.9,
386,0.266,26168.2,33757.2,33069.0,20837.1,35991.7,42187.8,33606.6,30762.8,47111.7,28144.5,25229.4,139844.5,56489.0,15101.1,102262.6,108389.4,72228.9,27130.9,20465.9,0.0,1011172.1,
387,0.314,5849.4,7787.9,12040.2,12885.3,10351.8,13514.7,16493.9,14882.6,26542.5,28379.3,30671.7,139236.7,58299.2,14736.6,90133.6,84740.4,81361.0,26751.5,18442.0,0.0,911920.8,
388,0.248,21946.2,23720.5,21212.5,21230.2,23603.2,23122.4,20907.7,25171.4,23738.5,33185.3,46552.2,102804.3,33001.2,24035.3,129366.0,120741.4,67746.8,18250.5,28609.1,0.0,1005491.2,
389,0.27,25846.1,35206.5,38012.3,49091.5,37054.7,44455.2,49402.2,36868.7,71062.5,133791.4,41205.1,273109.8,207493.9,20657.8,101138.6,148906.1,294618.3,94885.2,88461.1,0.0,1016182.2,
390,0.497,22692.8,25463.6,29748.7,32115.5,26137.8,29863.3,30075.6,31073.7,39422.6,48114.2,23633.4,208115.0,112526.5,23499.9,91394.1,68928.3,137867.9,40108.0,33853.4,0.0,1060519.1,
391,0.214,19697.3,22095.0,23334.1,21039.5,26918.5,30114.6,28997.7,33399.8,68761.5,20366.0,32066.1,322292.3,93922.9,16726.3,82208.3,111366.1,125373.9,40811.2,14867.6,0.0,1111396.2,
392,0.227,21662.6,30292.5,31687.1,19592.3,26702.5,31791.3,29099.6,16235.6,23547.2,53227.6,25216.4,124424.4,92799.2,16468.3,70573.4,90940.1,161670.8,24289.0,24941.8,0.0,1200213.8,
393,0.268,8813.9,14538.8,27617.6,23538.9,13751.9,21309.3,23950.8,11625.0,15108.4,30221.6,32394.5,224904.0,75992.7,9842.9,74671.1,160088.3,127475.9,20432.8,23202.3,0.0,1087250.4,
394,0.455,20029.5,33462.7,33185.2,23788.8,29875.1,38307.1,37664.2,19601.5,44529.1,18740.3,17519.7,172372.8,54806.5,8225.0,85081.6,98335.0,182706.4,25527.7,13067.8,0.0,1161948.9,
395,0.343,18180.5,23876.9,24618.5,23711.6,22212.9,26026.2,27611.5,19099.4,29564.6,38329.2,26171.9,191889.6,90317.4,22670.2,88001.7,61075.3,124029.8,36625.6,27046.8,0.0,1103032.0,
396,0.254,15516.3,24908.4,27485.0,22542.7,23944.8,31959.8,28393.3,13653.1,33210.1,22171.1,22375.3,88200.1,30912.3,10301.8,36089.9,86243.3,46693.6,25195.0,18327.6,0.0,1129858.5,
397,0.172,8619.0,13390.5,23108.2,25796.3,14371.2,19738.8,24635.1,10225.4,17002.3,11618.5,32200.7,117793.6,28384.2,7247.3,90570.7,139108.3,114925.9,15316.9,15373.3,0.0,1140504.4,
398,0.328,10669.1,14462.7,22564.1,19596.5,18985.5,24753.1,23962.1,14743.8,33503.9,32502.5,19346.7,119478.8,48133.8,8703.4,76947.0,99365.7,95390.4,26038.5,26111.8,0.0,1033987.0,
399,0.254,12398.4,16751.0,22744.9,25445.5,17367.0,26028.8,27625.2,17340.0,31520.2,55084.9,27744.1,130632.2,66414.2,15726.4,193809.5,64462.3,87482.6,28638.6,35768.9,0.0,987696.1,
400,0.188,8874.8,17424.3,29894.6,30802.8,16360.9,27500.9,28731.5,12377.7,22346.0,32348.0,35430.8,101307.1,58402.7,12565.6,119615.1,93673.5,106744.3,26813.8,41568.2,0.0,1062863.6,
401,0.301,25523.6,31409.5,29278.8,21736.7,33524.8,37061.0,32809.1,28575.7,43527.2,38008.7,24640.3,149443.8,53826.7,16341.0,75821.9,95114.3,85857.1,29017.1,22728.5,0.0,980245.7,
402,0.222,9944.8,15134.8,15775.8,14088.3,11051.8,15621.7,15468.5,9572.7,20385.1,46526.9,21836.6,189642.1,104573.9,5066.5,53038.6,99522.4,138815.3,24687.5,28803.7,0.0,991850.1,
403,0.217,10739.2,14706.4,16384.2,11308.4,15838.5,20109.4,18360.2,6332.6,20220.5,8069.4,20229.5,73548.9,26096.3,6551.8,42005.4,69093.0,57516.3,13632.0,7554.1,0.0,1002031.4,
404,0.193,8462.0,10714.5,18463.8,17809.8,11543.3,15535.3,19577.9,8026.5,15113.0,25711.5,13284.6,141118.5,53997.7,6713.3,47388.7,76333.7,128267.0,15834.6,16723.3,0.0,1003617.3,
405,0.216,15063.5,19485.7,19005.2,14999.0,21223.2,22821.9,19592.6,20998.1,31236.8,21384.5,15572.7,87780.2,34211.2,15788.4,44323.4,25994.8,45313.3,13480.0,12582.5,0.0,1133049.0,
406,0.278,13051.9,14811.4,17527.4,16540.6,19505.1,21767.8,19816.7,22386.2,32041.2,50750.1,19733.7,136292.1,77258.8,17843.5,42071.8,35419.6,158936.3,25627.4,18978.7,0.0,1086240.0,
407,0.261,35734.8,46818.6,44800.3,34059.6,48076.8,54102.5,49922.0,33315.6,61685.7,33466.1,19479.1,135800.9,48081.3,18187.7,39138.0,67049.7,94952.4,41868.4,24847.3,0.0,1119343.0,
408,0.195,11646.7,15711.2,16560.3,13646.6,17257.5,17240.5,16836.3,14954.8,26158.4,25917.3,28381.1,77635.2,31732.2,16917.0,26220.5,51422.7,37836.7,17571.3,22569.4,0.0,971751.0,
409,0.173,8754.2,10381.1,12541.2,18667.5,9683.7,10551.0,12583.2,10566.7,18589.7,20316.2,11166.7,44777.2,28785.0,8024.6,33319.6,21198.2,27880.8,19530.2,24520.8,0.0,1097323.1,
410,0.209,10866.5,11191.3,11334.3,9100.7,11395.3,12810.0,11489.0,10634.0,13588.4,11141.0,8597.3,24604.8,14237.3,9403.3,10752.5,15214.2,16834.7,10497.0,11632.1,0.0,997727.2,
411,0.535,11053.5,11263.2,8465.1,8413.8,11761.5,10921.7,10033.2,13857.8,14986.7,51078.7,29740.2,143924.7,75551.2,10977.1,77230.2,133658.9,188236.1,14525.4,12798.8,0.0,1091703.0,
412,0.229,37642.4,34124.6,28316.6,31833.9,34083.0,31190.9,30461.3,34229.7,36156.5,56171.2,45305.5,140742.3,78129.3,33846.4,58247.0,114020.4,143987.1,33937.0,33989.9,0.0,905580.7,
413,0.238,16181.7,17073.4,12657.5,10966.7,16476.4,15516.9,12958.2,11310.4,17160.2,46358.2,16871.3,138442.6,79119.1,8970.9,27035.3,92016.7,164471.1,17440.5,21484.0,0.0,962735.1,
414,0.215,10549.0,15011.6,16492.6,11093.8,12876.5,16152.1,16286.3,6995.2,13225.4,18216.4,11158.8,87058.1,30293.7,4955.7,29260.2,64797.1,91828.9,11955.9,11232.8,0.0,1024919.9,
415,0.276,18776.2,23980.3,24825.1,20084.8,25819.9,31508.4,28910.6,23340.0,37798.5,30644.9,18975.4,36232.6,25684.8,12842.2,68014.3,39834.5,32218.2,27315.8,23587.9,0.0,1014854.8,
416,0.227,8816.2,9149.9,8452.7,9397.6,9646.1,11170.1,11143.7,10490.5,24986.9,19661.4,16979.8,101143.0,38452.3,12568.5,48298.7,50050.8,25819.2,21001.9,21421.0,0.0,1090866.1,
417,0.225,14523.0,19812.5,23066.6,21221.0,21628.8,26934.1,26338.1,16707.6,31186.3,7758.2,5959.2,33400.8,19097.8,8439.2,12765.9,9992.7,14758.6,20688.0,12085.5,0.0,952591.6,
418,0.246,19302.0,27913.1,28310.7,26771.0,28909.0,34670.6,33974.8,18829.7,38526.2,59770.7,7061.6,137121.7,87429.7,8001.2,41956.6,55084.7,186625.2,37183.7,29501.3,0.0,946809.2,
419,0.216,15690.3,22076.3,27839.2,17187.1,25239.3,31425.5,27618.4,21907.3,40270.2,35567.6,23504.0,116017.2,59959.5,9621.5,48283.1,106332.8,105201.6,33045.4,23379.2,0.0,978461.1,
420,0.21,8772.1,13496.6,14932.4,9512.8,13605.8,18360.7,15794.8,11214.5,21762.1,10124.3,23190.4,79511.2,16351.9,7640.1,42766.5,85267.8,32267.0,12514.9,5724.0,0.0,1128802.2,
421,0.284,13676.2,19793.5,21456.9,14791.0,16381.0,20184.1,19228.9,8464.3,14566.3,16410.5,15589.4,62912.5,18744.3,8793.3,35077.2,81808.4,31642.9,16471.7,17376.6,0.0,1190639.2,
422,0.204,14751.6,17922.3,16930.8,14227.4,15667.4,15942.9,16036.5,14272.3,17220.8,12613.0,41202.7,62648.1,13662.3,14632.7,58059.3,146134.3,42706.1,11266.1,14803.1,0.0,1084181.3,
423,0.188,11885.7,16577.9,17957.7,25454.8,19651.1,23774.6,25969.8,21303.6,43708.9,32293.4,14786.6,158990.8,57096.7,8978.7,39774.3,52939.5,62865.9,37380.4,29260.3,0.0,1178184.7,
424,0.259,15445.2,22829.9,25247.9,17573.0,24895.1,27097.8,26811.4,15854.7,24263.2,18541.4,21365.2,130419.2,44420.2,8024.6,32419.0,87337.7,95163.3,21732.8,19884.5,0.0,1233849.1,
425,0.207,13633.6,24293.4,27460.3,23978.0,24319.8,31047.7,30006.6,12386.7,20327.9,21994.4,20315.2,123861.5,47242.5,8038.3,120323.1,106368.5,153803.3,16154.8,11975.6,0.0,1108200.2,
426,0.258,15177.2,21264.3,25873.3,25155.9,19325.2,23722.8,26035.8,17845.8,31844.0,43482.2,28147.1,127925.2,70530.3,11782.1,72386.8,92565.2,147192.2,28274.7,34130.5,0.0,1214151.4,
427,0.169,10836.6,9823.0,10011.4,8855.5,13107.2,12910.5,11377.8,19860.8,20570.0,24506.0,32667.5,124095.9,34743.3,14242.9,97184.0,105356.4,57584.8,14996.9,14151.8,0.0,1408136.6,
428,0.204,10020.9,14509.2,14724.2,11544.2,11813.8,15053.8,13724.9,9844.6,16369.1,19710.9,23903.8,101232.7,28902.8,7147.4,59926.0,102217.5,58301.6,13193.3,13556.2,0.0,1273713.4,
429,0.191,20231.8,23709.1,21000.5,19718.5,27096.3,27300.6,23715.8,22918.9,34490.9,27141.0,35421.0,117966.0,43118.5,19160.3,108690.9,107187.2,59088.8,33165.9,23091.6,0.0,1264834.3,
430,0.226,15851.8,17819.3,23577.9,19514.7,22010.6,23191.9,24355.2,18598.3,28815.9,20378.8,18914.4,86285.0,28341.4,12294.9,29119.1,60796.1,42792.6,20845.6,20974.7,0.0,1141830.1,Body  breathing  very  tranquilly-   very  peacefully.  
431,0.432,21883.7,29634.4,27944.0,22751.7,29492.2,35062.8,30313.6,17504.3,32700.8,32130.7,33832.5,89387.3,46937.0,13562.0,28074.0,113601.9,135174.4,17828.4,15423.5,0.0,1283440.5,
432,1.231,16522.8,26944.7,34418.5,28443.4,23843.4,29789.4,29733.0,15511.2,24284.8,32640.7,23372.4,76581.7,40296.8,12351.0,33597.1,81168.0,102745.3,26305.1,29573.3,0.0,1193161.2,
433,0.553,16344.7,25771.2,31969.2,34993.4,28920.9,35570.3,37475.7,24879.2,48075.6,29878.3,19331.4,132802.7,56673.4,13561.0,36808.4,79570.1,52480.5,45982.0,37008.9,0.0,1294833.5,
434,0.465,9344.9,13520.0,20744.8,22740.3,14108.7,19315.0,24777.7,12112.0,24596.5,20872.8,13256.6,109761.3,42364.0,7377.2,27873.4,70735.7,95053.7,29371.3,17656.7,0.0,1196552.9,
435,0.41,22561.2,27432.3,32461.3,27479.2,26331.7,29721.7,28017.1,25200.5,28442.1,14222.6,17526.0,81500.8,27529.7,19978.8,49274.2,51939.2,39171.8,24399.9,19686.5,0.0,1165083.4,
436,0.257,16354.0,15677.4,12912.1,13989.2,17784.4,18099.0,17299.0,20933.1,29443.5,22361.4,25169.5,76924.9,31830.5,15243.9,44316.3,69002.7,56492.0,19573.7,13925.3,0.0,1031571.8,Attention  expensive  and  diffuse.  
437,0.293,14136.8,21632.5,28195.5,24360.0,17499.8,25198.1,25651.8,13187.0,22266.5,55953.3,45197.2,89330.5,65219.2,14943.4,69190.9,135489.1,144782.0,26763.9,25304.9,0.0,1020192.9,
438,0.625,21609.0,28808.2,32277.5,25102.5,26680.8,31343.7,30880.4,20501.9,32868.2,28820.6,26417.4,96782.4,40728.6,11362.7,54377.7,110843.0,103350.5,29490.6,21741.5,0.0,1016373.7,
439,0.428,23916.3,25803.0,25287.4,22785.0,22761.0,24579.0,23628.3,15942.1,18290.0,16324.3,36572.7,80935.2,22861.9,16363.7,57988.6,152788.1,91184.2,18169.8,12598.1,0.0,1219216.3,
440,0.239,17332.1,22445.9,25825.4,19069.5,21993.6,27611.3,26012.5,17821.7,30413.9,8961.0,13431.7,117003.9,27763.3,6253.8,23719.1,92285.2,78627.4,22418.5,12210.8,0.0,1213504.5,
441,0.176,8516.3,9169.5,10131.8,13758.5,8436.9,10009.9,11771.6,9509.0,7389.3,13364.4,7138.2,26000.0,10359.9,6617.5,18157.5,20971.9,23353.7,11142.1,13520.0,0.0,1179714.6,
442,0.562,15746.0,17731.8,19613.5,24917.3,20205.9,21818.2,22942.0,26580.9,39905.6,34946.5,32197.2,176355.7,54224.3,21647.8,71460.2,148537.4,109528.1,29263.0,26950.3,0.0,1331591.0,
443,0.31,20250.5,27697.2,34042.6,32980.8,33472.4,39739.3,40069.2,30578.7,42487.4,24800.6,47531.8,107186.3,41352.6,19943.1,50098.9,154588.9,66306.3,37017.0,27922.3,0.0,1286469.2,
444,0.313,32258.7,27963.3,21643.0,15029.1,33426.8,30716.7,22681.5,28362.0,25794.6,18078.3,22409.1,24416.1,17410.0,25771.2,49988.1,33049.1,16028.0,17297.3,15103.4,0.0,1274679.1,
445,0.174,8987.3,10773.6,13399.9,13842.5,13401.1,17824.7,16803.0,12493.7,22529.8,20394.3,17302.8,37094.0,20361.8,10721.4,108334.3,51451.2,36507.2,18307.7,17414.2,0.0,1174485.2,
446,0.21,11833.5,11048.2,10375.7,9996.0,11298.9,10904.2,9824.6,14480.2,13791.5,16970.8,16370.2,39786.5,21184.6,13916.9,70693.6,37929.4,30786.0,10793.9,13106.0,0.0,1193012.9,
447,0.333,27287.3,45378.5,54928.8,49927.0,46241.4,60740.2,60984.7,29280.6,55473.7,20034.1,18432.5,69170.6,24652.7,16971.6,34472.6,69091.4,42824.6,46383.9,45094.2,0.0,1461905.7,
448,0.26,21847.5,30732.2,30012.4,21256.4,34790.3,39467.9,31531.6,30047.6,41337.2,45866.7,41642.5,174912.0,86391.0,18038.4,58547.2,173462.1,185797.3,27894.3,24902.1,0.0,1153766.1,
449,0.239,11573.5,16054.3,19177.5,18576.0,15423.9,22008.7,20623.9,10486.0,26148.8,28787.4,26038.2,126215.6,48781.0,9651.5,48807.1,95857.5,79708.9,21090.1,17998.4,0.0,1404370.4,
450,0.185,14796.8,20545.1,24409.1,25890.3,19369.3,26193.3,24025.3,10024.7,16320.8,32063.4,17578.3,155620.5,59671.4,13868.0,52914.1,103558.7,138123.1,17923.0,19893.1,0.0,1206758.4,
451,0.239,15676.5,18443.2,22192.7,22224.0,19708.4,20861.9,22162.4,15789.8,22442.5,24286.4,12622.4,84069.7,38325.7,11189.3,47255.6,46282.2,60214.0,22788.4,16507.9,0.0,1247831.3,
452,0.215,9081.7,10335.6,9695.4,10679.5,12589.2,15988.7,14623.7,16560.1,29325.8,12574.3,9155.5,62757.9,32869.7,10300.4,50153.0,21230.2,19584.2,20003.5,12396.8,0.0,1212539.2,
453,0.232,24306.4,27405.7,25848.6,22002.6,31434.6,32133.6,31412.6,27667.5,41056.8,11745.1,11327.6,30854.1,23556.2,14234.5,32828.5,26352.5,20017.5,29265.2,18888.9,0.0,1314089.9,
454,0.482,14089.8,18657.0,19452.6,23405.5,16778.7,20205.9,22644.5,14597.7,20297.3,48618.4,21636.7,41599.3,30018.0,11569.3,43036.1,71605.2,55786.3,23471.9,34398.0,0.0,1300887.3,
455,0.221,7355.5,10489.4,12747.4,15256.0,9450.4,13695.8,15629.1,5825.3,14293.0,21438.8,16025.7,41605.1,23602.6,6224.4,44175.1,62225.0,21733.9,20154.8,25066.2,0.0,1308229.4,
456,0.242,19840.8,29073.6,33861.1,29509.6,23613.3,30244.7,30624.6,18098.7,27247.6,34461.3,25689.4,116568.6,46932.9,10950.4,67211.1,103585.3,96036.7,22992.4,28312.4,0.0,1355744.8,
457,0.262,15280.0,18224.8,17880.7,15879.8,19832.6,22997.5,20053.0,15765.1,21964.1,25760.8,16060.8,100683.8,46581.2,18276.1,26265.4,47984.7,127598.2,15435.6,12405.1,0.0,1339837.3,
458,0.252,14207.2,21987.8,24908.7,16234.0,21384.0,27681.7,22795.1,14793.8,23957.8,20297.7,23301.5,107540.9,37237.9,11101.8,36326.8,83825.1,97433.7,17542.9,17342.2,0.0,1218169.0,
459,0.202,13270.6,20071.9,22343.1,18809.9,21946.9,25231.3,24307.9,15711.4,22986.0,16398.4,18774.2,84454.1,28266.0,8624.0,65500.3,84175.9,47260.0,17823.1,21171.0,0.0,1250418.3,
460,0.264,12117.5,14059.6,17440.0,17522.1,16924.4,21312.8,19412.7,19816.3,28224.8,25077.5,28540.5,55593.4,29915.4,17978.3,34658.6,70647.0,32555.3,25766.9,27429.9,0.0,1162955.9,
461,0.699,13839.4,17981.6,23144.3,22605.9,16910.5,20612.4,20706.5,13649.6,20229.9,41444.1,21618.1,35651.8,23336.8,16795.7,65744.9,37548.9,58683.6,16834.1,38514.2,0.0,1175098.1,
462,0.86,23522.2,26244.1,22311.2,22310.6,26212.8,28886.9,27254.7,19921.6,31437.2,20429.2,19803.3,66262.8,28234.1,18947.0,29582.5,27905.1,29313.8,25619.2,28648.4,0.0,1060837.9,
463,0.444,21137.3,30972.9,34820.4,37013.6,27227.7,34915.9,38050.5,19514.5,33995.7,43276.0,53611.2,104538.0,49714.7,23364.9,50967.6,132362.2,100102.7,35765.6,41594.2,0.0,967257.0,
464,0.229,13447.1,16295.3,18115.6,19417.9,15456.5,17615.4,17989.0,11651.4,12664.2,22121.9,15701.1,59543.3,19050.6,13177.8,39532.5,54265.2,50906.8,11118.9,18629.6,0.0,1048993.6,
465,0.193,11230.9,19205.4,21940.9,24911.3,16098.6,20799.0,23584.4,9938.8,18599.7,58046.8,17240.3,52447.4,34551.2,7059.4,25686.7,63829.9,73979.5,22218.6,31071.9,0.0,1024484.6,
466,0.207,6806.4,10354.3,14210.0,13750.1,11732.5,14836.2,14502.8,7013.8,15323.5,11668.9,32939.4,57267.0,13437.7,11139.0,17814.2,97663.2,15138.4,14526.8,17738.5,0.0,1101691.5,
467,0.214,13300.8,14502.6,17449.2,20627.8,16586.6,18736.0,20030.0,20439.7,32324.5,38183.3,36523.5,113085.5,56201.4,16331.4,58339.5,97004.9,96610.4,29370.2,26305.6,0.0,1155991.9,
468,0.243,23621.7,28313.5,27490.6,21068.5,24848.5,25989.8,22798.1,16888.1,18505.6,21913.2,19957.0,103680.3,35837.0,13164.8,48453.9,72923.0,102452.3,14751.9,16398.4,0.0,1161740.5,
469,0.286,10308.5,14096.4,16519.0,13709.3,17016.4,20609.5,18382.8,13923.8,28118.6,8804.5,15357.5,161424.0,49762.1,6912.4,66175.7,69217.4,84892.3,12942.6,8471.2,0.0,1093694.4,
470,0.326,12014.9,17800.7,23284.2,22861.9,20839.8,24003.4,26206.5,19485.7,27430.3,16404.7,26509.6,100177.2,39294.4,13116.7,43304.7,106063.6,64336.2,23684.7,22287.8,0.0,1194117.6,
471,0.188,13899.2,14592.1,14515.7,15243.4,16813.0,18574.6,17826.5,15932.5,18863.1,18467.1,13152.7,41248.3,25030.0,12841.1,54462.7,30089.6,23996.0,20518.7,15660.4,0.0,1126840.5,
472,0.175,7278.4,7371.2,6702.6,7765.4,7962.1,8524.0,8891.8,7364.7,9911.5,11229.9,8631.8,17283.9,13959.0,6499.3,13550.5,17086.2,15850.8,10093.4,9044.7,0.0,1286670.1,
473,0.24,9157.4,9217.1,8021.0,7418.1,10197.7,10467.7,8046.8,11553.3,10404.5,12502.4,8005.4,19695.7,15429.0,8680.8,37244.7,15467.3,18506.5,9376.8,11577.8,0.0,1225046.1,
474,0.294,11654.9,14568.6,13657.0,15592.0,16799.6,16619.0,16308.2,15747.7,17132.8,21175.0,18985.4,23407.1,21014.6,13293.0,37445.2,50315.3,24871.1,17882.1,15121.5,0.0,1199186.0,
475,0.188,6809.1,19463.3,30735.9,42580.6,14856.6,24856.6,32550.8,9383.6,22781.3,67000.5,36360.2,35662.1,53173.2,16610.3,26601.8,68788.8,64308.6,37967.2,55441.6,0.0,1038907.0,
476,0.227,19706.8,21699.7,17888.1,16462.3,24747.8,25455.8,21408.9,21488.5,22008.3,27048.0,30295.0,48091.1,26927.7,25107.1,29844.9,58373.8,33951.6,18611.4,32223.2,0.0,1131824.3,
477,0.223,19182.6,25612.4,26628.3,21261.1,28168.1,30153.9,29555.9,19705.3,30492.9,20991.7,29380.2,114196.7,39970.9,17047.7,32551.3,119798.6,129523.8,18219.5,15479.4,0.0,1041980.1,
478,0.177,10097.0,12235.7,19906.2,14615.6,15615.5,19589.2,20985.9,13023.6,20230.8,31743.6,11526.9,80846.8,39797.0,10915.1,42788.7,50157.9,77237.9,17525.5,18492.7,0.0,1056236.3,
479,0.21,11372.9,17507.0,20625.3,12823.5,14702.1,20193.7,18081.8,6559.1,12308.3,18684.2,23757.0,87662.2,34251.4,6774.7,86579.8,107161.0,121803.2,9596.9,7827.6,0.0,981990.3,
480,0.168,11685.0,15639.0,14785.6,13454.6,15304.1,18713.6,16536.8,14939.1,23200.6,69129.0,25648.2,167747.0,82731.7,10174.5,50992.6,146307.1,214213.6,20275.9,26229.0,0.0,1130512.9,
481,0.181,16465.6,17879.2,16988.5,15133.5,16537.0,18110.8,16866.4,12201.3,15002.5,25448.0,19246.1,96358.3,41825.5,12728.5,32492.8,91278.9,81705.0,12860.8,13281.1,0.0,1054601.9,
482,0.194,7577.7,10631.6,13205.9,9234.8,10906.1,14709.2,14087.1,5787.6,12067.5,21891.9,22609.2,107450.5,42107.2,6950.3,34941.3,100496.5,117172.2,9786.5,12217.1,0.0,1008127.1,
483,0.195,11897.7,18208.9,20020.9,16023.0,15552.6,19325.7,19642.6,15150.8,20988.7,45221.7,42142.9,136991.6,73471.6,12261.6,52206.5,162940.6,192378.8,19914.8,17186.4,0.0,973115.1,
484,0.333,17701.7,27546.2,32561.5,27928.5,29471.1,36329.5,37071.4,21129.5,33158.2,24310.9,14995.5,99630.9,41753.5,14169.7,51918.8,61810.7,91472.4,28353.7,34859.8,0.0,1038677.0,
485,0.196,20760.9,21732.4,26134.8,22662.6,23853.0,29654.6,28486.1,18553.5,20103.7,19827.0,19885.4,129541.6,37690.3,24347.5,49857.6,102543.4,121402.0,14324.0,19406.6,0.0,1047396.0,
486,0.199,9510.6,10375.4,12502.5,11240.6,13189.0,15199.0,13698.2,15304.5,19868.4,26754.8,18032.2,52783.0,38759.0,12333.8,27960.1,46000.5,51612.3,18113.9,15028.2,0.0,1005888.1,
487,0.228,11452.5,15546.7,16386.1,13057.0,13706.8,15042.1,13749.8,11642.2,12329.8,14514.0,22444.1,41717.7,13978.0,13619.2,116198.2,59188.3,26152.7,10907.1,15026.1,0.0,1108776.0,
488,0.217,13173.6,15953.8,21469.7,22083.8,18102.3,21459.2,22082.3,17223.2,30988.6,23174.4,12267.2,55009.6,33783.1,13020.1,56161.3,36080.2,30805.1,25752.4,24911.3,0.0,1000891.7,
489,0.193,15835.6,19873.5,19409.7,17860.6,18378.9,20595.2,20026.3,13416.9,23049.4,28079.8,18060.2,134126.1,43209.4,12034.8,64496.4,102658.8,76837.1,20200.1,25590.5,0.0,1147763.5,
490,0.217,5686.1,7637.8,8261.7,9298.1,7005.0,8949.1,10591.4,8178.0,10574.7,17621.2,31007.2,117800.0,37933.4,11827.8,73761.3,88407.1,84101.5,12105.3,10290.2,0.0,1330216.2,
491,0.201,17441.2,18618.9,17872.6,18745.0,20381.7,21624.6,20478.1,17777.0,22072.2,21974.7,16091.1,44431.1,31854.4,15616.4,56430.4,32657.2,56803.6,20460.7,20310.6,0.0,1420604.7,
492,0.225,17050.3,19005.3,17981.7,21450.7,16263.7,17537.0,18031.3,15033.5,23428.6,27703.4,8128.6,30801.7,25663.8,12591.5,17352.8,12246.2,30004.3,23319.5,25838.4,0.0,1112698.9,
493,0.301,21736.2,23330.0,24143.1,28358.9,22434.8,23184.3,25543.2,21352.8,26607.4,28326.5,18963.0,31933.4,30797.0,16393.9,30868.7,28537.3,27978.1,25195.3,32434.6,0.0,1255674.8,
494,0.174,8443.1,10625.3,15208.0,17942.8,11780.1,15000.3,16099.5,12696.4,19537.2,26791.6,9082.6,85139.1,46597.7,9325.6,155360.1,27539.6,78358.7,22128.0,20079.4,0.0,1094909.2,sorta of rocking sensations-  attention seems to want the find the bottom of the breath
495,1.24,11483.4,16180.5,16489.9,17169.5,11752.7,13758.5,15369.6,9157.6,11374.9,20247.4,9214.4,66315.9,31405.0,7165.7,46156.6,53467.1,109861.5,14225.7,13154.4,0.0,1193131.6,
496,0.327,15418.2,20205.4,27011.1,28525.7,20733.9,28064.4,31654.0,18643.5,36207.6,39509.3,10465.5,92447.7,62338.3,13951.7,50328.1,37772.3,83014.7,38226.9,31465.4,0.0,1108724.6,
497,0.379,13356.1,11073.5,10580.6,7012.0,13149.6,11579.6,8908.0,16222.5,15272.9,5776.5,11680.3,27625.5,8967.4,13974.4,48977.7,15887.4,12322.9,8044.6,7361.2,0.0,1152563.9,
498,0.422,13638.6,16495.1,19803.5,16352.6,18919.1,23637.0,21698.5,11570.2,22261.3,46607.3,18532.4,152208.7,78505.6,8532.1,42316.3,94420.6,206787.2,20934.3,19391.4,0.0,1268520.0,
499,0.382,20657.8,30867.3,36616.4,34762.6,34669.7,41086.8,41028.1,27607.8,53786.8,38572.0,31859.8,206636.8,70445.7,13334.7,75312.0,151114.9,208640.1,42790.7,22743.6,0.0,1171718.8,
500,0.193,5676.0,9700.2,16284.9,14686.9,12941.6,15693.4,17107.9,10837.4,20764.9,41572.8,16313.7,45973.0,29651.4,6175.8,94092.4,42793.4,124231.4,17280.8,18821.6,0.0,1141123.5,
501,0.345,12254.0,17704.8,25119.6,27174.7,20704.2,26615.2,27900.5,18613.5,26092.2,27508.7,15030.5,42031.1,24825.3,9707.9,19677.0,43997.3,44746.9,25830.3,20001.0,0.0,1073293.6,
502,0.222,15449.7,13240.5,13537.8,15489.7,13088.1,13253.0,14422.0,14673.9,16842.6,21619.1,18788.1,31264.9,21212.9,15078.7,29375.9,26904.6,26078.0,16399.2,19674.5,0.0,1183465.4,
503,0.262,12296.5,15654.1,15058.0,15815.7,14041.4,14187.2,15776.2,13924.6,18260.8,19040.6,7499.5,47564.3,26324.8,10429.9,34626.8,20985.1,32349.0,17738.4,14758.0,0.0,1171964.0,
504,0.219,17172.3,18691.3,19448.3,19661.5,20724.3,23651.9,22671.1,21311.0,27313.4,19708.2,21075.6,36898.3,23132.8,18311.3,53032.4,48419.5,33801.6,18882.4,27791.9,0.0,1225795.3,
505,0.303,10677.3,10723.2,17378.3,20532.7,14001.6,18454.6,22175.2,21285.9,27541.2,44964.2,10576.3,79646.9,66708.4,7998.9,28787.8,38221.0,131462.8,24677.6,23386.0,0.0,1281035.3,
506,0.672,21293.4,26064.1,35714.1,39885.7,26244.6,36385.3,45224.2,28781.5,52614.1,61417.8,26609.1,172030.7,89763.7,18897.2,47802.2,114453.2,165090.8,50072.2,44616.1,0.0,1048573.2,
507,0.812,20065.3,31146.2,38703.1,28816.7,38225.2,41493.9,40711.9,35554.1,38723.8,19862.3,19851.5,126072.4,45182.1,15474.3,62799.8,84789.7,123440.6,31658.4,13381.3,0.0,1392624.9,
508,1.449,14499.6,18334.4,23083.8,23192.5,21424.8,23693.0,26297.1,21962.7,16610.0,26357.1,24163.4,82831.7,31834.3,11486.6,100698.1,106689.7,99021.6,19075.8,19856.8,0.0,1229682.8,
509,0.844,20047.8,20620.2,26058.5,28578.6,22011.9,25685.8,26294.1,29223.8,27380.9,42003.5,29052.3,83400.5,42370.6,17064.5,40935.2,52012.2,98804.0,33400.1,27350.3,0.0,1280940.6,
510,0.402,29771.8,36983.7,34837.6,26123.6,41396.9,33677.3,31704.1,46888.5,37485.3,49011.6,46222.8,161557.8,88524.1,30401.6,71986.4,125428.4,222439.3,30153.2,22913.9,0.0,1337128.5,
511,0.27,16697.3,28316.6,32828.1,25769.8,33723.6,33579.3,33485.0,24930.7,33292.6,54753.5,16663.7,139113.0,78448.7,9518.1,35058.7,82897.1,195354.7,28935.8,21776.0,0.0,1298046.9,
512,0.238,10434.7,18520.2,27023.5,26659.1,25526.3,30205.3,29995.9,26009.1,37765.2,31350.2,13585.2,110596.9,66548.7,8254.6,32019.8,56350.3,124163.2,31945.8,24621.8,0.0,1254066.0,
513,0.316,25244.8,28948.3,28794.4,24387.7,32314.7,33372.8,31628.1,29781.2,43071.4,27355.7,44149.0,152786.2,65622.8,21367.5,79587.5,141334.2,145560.7,30959.7,19932.4,0.0,1278390.7,
514,0.287,26849.6,27829.3,23307.4,23647.1,29731.9,28937.5,27139.5,30708.5,34908.5,68937.6,44254.5,191767.7,107728.3,22936.9,46279.4,159902.5,225902.3,35839.7,33667.3,0.0,1324297.3,
515,0.362,22599.0,31760.2,35637.8,22308.4,29455.2,34368.1,29881.5,13582.1,31947.1,17216.6,27917.4,75574.4,28139.2,7627.7,63394.5,143713.0,149123.3,16538.4,14886.8,0.0,1334696.8,
516,0.24,22753.5,25367.6,23680.6,22952.1,24514.0,24007.6,23997.2,23452.6,27695.2,100994.0,53129.5,159259.5,120824.9,25630.6,141173.1,162472.4,299418.1,33236.1,41251.4,0.0,1322119.3,
517,0.496,15850.6,18880.9,30088.2,35217.7,20758.7,29478.4,33089.5,19451.9,35988.3,24477.4,30431.9,114544.0,47139.1,12475.6,78546.3,105470.8,107262.7,32320.5,21821.4,0.0,1205061.4,
518,0.417,28118.1,34004.7,35917.0,33957.3,31768.6,38980.3,41574.5,30730.6,44921.9,56058.3,45266.6,86411.9,72028.3,25869.0,44606.4,86625.6,93802.8,46593.2,40900.4,0.0,1232543.8,
519,0.293,28912.9,31324.9,32918.9,29815.1,35079.8,36651.5,35392.9,37489.6,41867.5,30623.2,22069.0,89350.4,41973.5,29636.8,66462.4,69502.5,99229.3,28147.7,23303.5,0.0,1147648.2,
520,0.404,15225.7,17963.0,21596.7,19732.6,19663.2,22757.1,22831.2,16725.0,27187.6,41909.4,20170.2,49034.4,50809.3,15771.6,14291.3,27711.9,110486.5,26531.9,20733.9,0.0,1187445.5,
521,0.203,12899.7,17823.4,19754.7,15751.1,20879.4,27358.2,23948.0,23575.1,36397.3,25856.0,31130.4,95418.2,31553.5,14628.0,46900.3,83949.7,87938.8,20105.7,12755.2,0.0,1206939.4,
522,3.441,9491.9,20587.0,14989.0,10537.6,12915.7,13184.0,12427.3,9514.8,12267.1,27117.1,20239.1,41152.5,28578.5,9287.8,52114.4,66411.4,92106.2,11466.6,9180.6,0.0,1137142.3,
523,0.9,27956.7,58693.0,67737.5,35221.2,32874.0,37961.4,38972.0,24397.1,31309.7,16307.8,13356.6,20894.2,17947.1,17051.7,40037.8,16794.7,17544.1,27116.0,21368.2,0.0,31917140.8,
524,1.182,10330.5,27564.7,34124.8,17082.5,12252.7,17419.5,16811.3,10259.7,11321.4,17810.2,9373.6,7796.4,13021.9,6849.6,28105.8,8801.3,13373.6,14088.7,18307.1,0.0,1219187.7,
525,0.9,6217.4,12013.9,9949.0,6607.9,8465.1,9694.8,8749.3,6442.1,8405.5,10444.4,7679.8,9915.3,8400.7,6904.0,71869.6,8414.8,10283.1,5773.0,8315.6,0.0,1389701.9,
526,0.195,8039.5,11492.5,11536.5,10472.7,11527.3,12057.1,11423.5,8969.3,11113.0,5069.8,5817.0,12639.9,6604.0,7103.6,43164.2,8601.2,7775.9,7984.7,8610.5,0.0,994932.5,
527,1.35,19464.0,54651.9,50971.9,19682.9,16135.2,16586.6,16034.5,11875.2,9867.9,12090.8,12904.5,11022.8,11900.7,11466.5,52352.7,12267.5,15439.3,14521.2,15731.6,0.0,1092155.4,
528,0.168,8345.7,8746.8,8673.3,10430.0,8165.4,8587.3,10680.7,7879.6,9358.6,16899.9,10302.9,12463.2,12014.1,8434.7,46619.4,14391.3,17562.1,9340.0,12422.9,0.0,1028054.0,
529,0.304,16004.0,17810.2,24995.0,27683.2,19918.7,22871.0,26081.3,21061.8,27451.8,28546.0,19396.1,30107.0,29469.8,15701.9,21708.2,23680.1,29459.3,28327.3,31924.4,0.0,1054213.0,
530,0.98,20055.9,59332.6,54767.9,22891.6,22255.4,27497.3,25420.4,13232.4,13271.5,19512.9,10845.4,15529.0,16631.1,12722.8,38022.6,13057.9,22629.3,15982.3,20335.7,0.0,992087.3,
531,4.646,37922.9,124833.8,118829.0,39740.6,45708.5,48586.7,41278.7,27218.1,32545.6,25320.5,13496.5,28449.4,25416.9,18313.5,65199.2,26310.8,24731.2,27435.9,26149.1,0.0,5180958.0,
532,0.653,20878.8,23228.2,33730.1,30996.9,23370.7,28608.8,33041.7,21039.1,29011.2,22584.4,13620.2,20138.3,23518.8,11346.1,60692.6,16318.5,23260.0,28871.8,28326.6,0.0,1601314.3,looking at the flame again
533,0.418,17993.3,20668.5,21231.3,19520.3,22219.0,22256.0,23196.4,24641.3,22705.6,20575.6,24558.0,25864.9,22072.4,19315.9,27911.5,27893.3,27852.5,23433.3,20127.7,0.0,798426.5,
534,0.356,9367.6,9562.9,11998.5,10982.0,15451.7,15641.7,17495.0,18689.0,22712.0,9421.1,3480.1,10226.7,9061.1,7156.4,105353.4,8271.4,11930.7,29512.8,14983.2,0.0,727592.3,
535,0.311,28264.0,30744.9,30485.6,32349.5,35173.9,33835.1,31733.1,40104.5,38199.8,38285.4,22695.9,29784.2,37431.0,18900.6,46947.0,20402.3,32932.2,35982.1,33545.9,0.0,699970.4,
536,4.46,35175.6,109243.1,84174.0,26370.0,47270.9,47327.5,39017.7,28915.7,37399.5,15820.4,14244.5,20331.2,16565.4,17049.9,31814.7,16774.8,14021.7,19231.5,15276.3,0.0,859681.1,
537,0.38,16346.2,17533.3,15569.0,13950.3,14986.9,14838.3,13107.8,9413.9,12175.5,11220.1,11053.9,9313.6,9272.9,11669.8,14680.5,11627.1,10162.7,10966.7,12744.5,0.0,807928.0,
538,0.242,5526.0,5683.8,6087.7,4307.4,6473.1,7123.9,6725.1,8086.5,8484.5,5873.8,10619.7,8089.6,8529.3,10986.1,23589.0,9323.8,9919.7,6708.3,4141.5,0.0,716930.1,
539,0.207,4805.3,5417.5,6938.2,6054.5,5317.9,6746.6,6422.6,6047.4,7473.0,6772.8,4501.9,8599.0,6899.6,4775.6,18864.6,9424.9,8838.5,6734.7,5775.2,0.0,871234.7,
540,0.4,7761.2,9018.4,12868.9,13247.7,8894.9,11627.1,12695.6,9935.4,11802.6,11162.6,13052.4,9397.5,12754.5,10954.8,21450.3,13466.2,12385.1,11671.5,12391.7,0.0,741743.9,
541,0.215,15345.0,14398.4,11662.9,14378.3,15677.0,15258.9,13860.8,10664.4,12083.2,23008.2,9172.1,7537.1,10369.5,13855.3,19080.1,12182.7,8193.4,13976.6,21092.5,0.0,754036.9,
542,0.204,9068.7,9668.7,11946.8,9968.8,9971.3,12523.5,12821.6,7537.6,11890.9,9941.5,11042.3,8993.9,10256.2,9229.8,24792.3,15255.0,14140.6,9563.3,9885.7,0.0,746975.4,
543,0.258,13512.1,15639.9,19092.0,23097.7,17404.4,20078.7,23032.8,21259.4,29467.7,26791.7,14983.4,20730.1,27116.9,14773.3,47995.0,15761.6,21044.9,30551.3,27839.3,0.0,789391.1,
544,5.694,14977.2,62388.5,55109.4,21632.2,20034.7,21592.3,21404.3,16704.9,24406.8,46779.8,18310.2,42957.2,45909.0,12897.5,43910.5,29843.7,42961.1,29545.9,43775.3,0.0,664887.6,
545,0.263,13224.4,14193.9,10907.8,14431.2,11670.4,10591.3,11026.7,12493.5,13261.6,20537.7,15363.8,13051.0,12690.9,13015.1,21172.6,16391.1,12762.4,12839.4,21755.1,0.0,754137.5,
546,0.252,18577.0,19329.9,21702.3,22679.3,20854.1,24290.4,23181.2,21194.9,22865.2,34958.0,23575.1,28261.1,29564.2,16390.0,35314.2,33920.1,46303.9,23498.6,29992.6,0.0,836507.4,
547,0.406,15970.8,17230.4,17367.9,18509.4,15633.1,16915.1,18614.1,14395.3,14822.9,13643.5,11202.3,12663.3,12732.9,13675.7,38467.4,11875.2,15984.3,13162.1,17288.6,0.0,780532.0,
548,0.202,12306.3,14201.0,14899.6,14366.9,15165.6,16919.5,14473.5,14664.4,21309.0,13625.3,12572.8,24996.6,18416.2,13302.9,32868.8,23310.0,25826.9,15604.5,13637.8,0.0,751047.1,
549,0.242,9109.8,8081.5,9293.8,10751.7,7222.8,9402.1,9890.2,9818.2,12010.7,12402.6,10491.7,14644.0,11171.5,9040.9,25965.9,13985.8,13504.5,11092.2,12790.3,0.0,735483.0,
550,0.138,8300.1,5935.5,5357.4,3947.6,6278.1,5543.7,5090.4,4985.8,8124.2,5857.4,11561.1,10229.1,5822.1,8626.7,22107.6,11879.5,8346.3,4246.7,8275.9,0.0,699431.2,
551,0.255,19631.1,21847.9,23767.6,20930.0,26796.4,29055.6,26919.9,23874.5,29759.8,21022.5,19329.6,32606.1,25473.3,17494.0,24986.1,36474.6,31931.0,25396.4,21973.7,0.0,801199.0,
552,0.199,10091.8,10752.5,11757.1,13200.5,10895.6,11354.9,12830.7,10887.2,11897.7,21272.4,15015.7,19020.0,17303.7,13567.4,25917.5,20172.1,21332.2,13643.8,19315.5,0.0,844499.4,
553,0.183,6224.6,6520.0,6818.3,7216.4,6170.8,7292.9,6687.5,5736.4,4851.5,20703.5,11373.7,24416.5,25586.1,6641.9,24338.6,18434.5,16983.6,12259.0,16899.2,0.0,827122.1,
554,0.242,15059.8,18575.3,19286.2,16553.2,20089.7,23661.1,21708.2,16076.5,22589.1,15809.2,8895.6,9928.4,13395.6,10951.9,27842.1,8981.4,10059.5,16116.1,18605.9,0.0,643113.8,
555,0.212,16565.3,17856.4,19507.2,18582.2,18699.2,19138.8,20331.8,18845.9,23776.8,17290.0,21206.7,22842.5,17466.6,20343.8,47238.5,24493.8,20094.5,20133.0,23363.4,0.0,670268.1,
556,0.193,13700.0,15298.6,18418.8,20107.7,17221.5,20096.1,21397.2,13206.2,18174.9,22079.9,14806.7,23020.5,23909.3,12252.6,35336.9,18430.4,23722.3,20951.5,21773.3,0.0,638411.4,
557,0.315,7558.3,9294.0,10623.6,10700.3,7695.0,8338.7,9365.8,7371.0,8995.4,9116.7,7013.9,9207.0,9528.5,6492.5,35262.5,7629.8,7769.3,7754.7,11322.8,0.0,683908.3,Background turning purple
558,0.541,22029.2,29929.0,38014.4,37544.1,28272.4,30809.7,32593.2,22345.7,26183.4,20288.9,16345.5,19150.5,21927.7,18308.9,31839.3,16697.1,13483.1,26021.3,30472.5,0.0,624211.3,
559,0.192,9360.2,10097.3,12390.7,11933.2,10664.1,12592.3,13142.8,8173.6,9743.7,11534.0,9825.0,10020.8,11180.4,8506.0,6943.0,11875.5,11260.2,11431.5,10921.3,0.0,676052.3,
560,0.239,15951.7,16100.1,15508.0,14101.6,14875.2,15015.7,13166.7,15888.4,14232.7,13742.8,15859.6,15295.3,15806.1,17473.3,21666.1,14904.3,13499.4,15391.7,15121.9,0.0,709315.6,
561,0.17,5638.2,5210.6,4762.5,4944.4,6815.5,7492.4,6629.5,6735.6,9405.2,9266.6,7654.4,9477.4,9029.5,7024.2,51508.6,8849.4,12186.4,7544.1,8376.1,0.0,748942.5,
562,0.241,14225.9,14530.9,15795.4,15757.7,13868.8,16412.5,15433.4,12660.4,15420.0,17283.6,12501.0,15127.2,17090.0,13896.5,20954.7,12968.0,15425.6,14611.8,18298.6,0.0,773034.0,
563,0.198,12835.7,11734.8,10119.6,7903.2,13589.4,14260.1,9795.8,16377.4,14217.7,10825.1,13726.1,12086.9,6200.1,13993.3,35523.2,11691.2,9206.3,7224.5,13570.7,0.0,723037.0,
564,0.186,9351.6,11469.8,11636.8,13013.0,12877.8,14065.1,15233.8,10520.7,14089.3,13047.6,7760.9,12833.1,13239.0,8037.2,36330.4,8242.6,12256.9,13778.4,12608.3,0.0,674171.9,
565,0.193,11018.0,9870.8,10020.4,9847.3,12617.9,13208.0,12654.6,14121.7,18007.6,12336.6,11228.2,17883.6,14249.6,10919.2,51186.6,13007.1,11933.9,13499.2,10808.6,0.0,661033.4,
566,0.215,9862.6,7607.7,6910.2,8782.6,7757.6,8391.0,8021.1,8194.5,8031.8,11146.9,10849.5,7260.9,8667.7,10264.6,21026.0,9559.9,10249.8,8393.5,14544.1,0.0,644905.4,
567,0.182,12371.8,12838.1,15416.9,15969.2,11659.2,14157.6,14939.3,10060.5,13016.7,13685.5,9610.0,13060.8,14305.8,9937.8,21832.1,13880.4,14110.3,13806.6,12775.4,0.0,664592.7,
568,0.219,12270.4,16119.4,19600.2,20599.1,16996.8,19164.0,22690.3,12870.3,18809.9,24838.3,11185.7,24188.0,25019.2,11080.0,15434.1,15042.9,28268.4,23626.8,23989.6,0.0,648927.2,
569,0.694,11775.5,14544.1,17374.8,18763.0,16751.3,17961.3,17956.3,19647.1,22861.1,18638.1,13244.2,30151.0,23778.5,13506.2,66622.2,21473.1,26119.3,21151.8,20551.7,0.0,704849.3,closing eyes
570,16.814,57471.5,69291.9,118614.2,39597.8,27293.7,30298.5,30834.4,10962.0,19170.3,16947.4,7057.6,21707.3,19722.4,10343.6,32482.3,15683.8,20823.7,22366.7,17282.5,0.0,742482.5,
571,0.339,11300.7,9617.2,9775.1,11789.7,9629.3,10028.1,11470.6,12063.7,13573.7,9923.6,12946.6,12837.6,11375.5,14631.8,26240.1,11238.6,11014.8,11004.4,13459.3,0.0,739086.7,
572,0.257,16051.3,14802.5,17586.0,15986.5,15994.2,16614.5,17882.6,17890.5,17864.5,12635.7,13190.8,14506.6,15119.6,15758.3,34449.6,14743.2,12371.7,15098.8,17457.9,0.0,718933.6,
573,0.273,12973.7,14163.7,12040.5,13722.1,12559.7,11617.5,9969.8,11010.8,11075.7,9761.3,10585.1,10361.5,9060.0,9853.9,29340.3,10244.2,9841.3,11173.3,12859.9,0.0,670505.0,
574,0.199,6983.5,4669.9,6961.2,8151.5,6537.7,7513.0,7864.8,8763.1,9812.3,10610.3,6532.8,9505.7,10569.7,9636.1,51536.0,5992.7,8026.7,13347.1,10660.1,0.0,811509.0,
575,0.312,11850.1,11654.6,10220.1,11734.5,12469.5,13609.3,13783.7,11704.1,12383.0,18425.9,11001.5,12276.4,16864.4,11046.8,28709.7,11245.8,15397.9,15443.1,19517.7,0.0,916092.9,
576,0.225,9340.5,13433.3,14095.5,14840.9,11935.3,14248.4,14225.0,11917.8,10716.8,13381.7,6007.4,8793.6,12886.9,9319.8,10627.4,7811.9,9303.0,18945.4,15186.7,0.0,813203.8,
577,0.216,8889.9,11469.6,12451.0,14391.4,13525.6,13716.7,13408.1,9984.1,12733.9,13159.7,10167.8,9840.4,9912.5,14249.3,10253.3,9788.9,12322.5,12479.9,17100.2,0.0,845590.9,
578,0.23,11237.8,13267.4,13683.6,16602.3,13460.1,13523.9,15150.6,13117.5,16736.0,19866.0,7471.3,21805.7,24781.7,10988.0,42612.3,11125.4,21295.6,17251.6,16881.4,0.0,915423.2,
579,0.313,25522.1,24338.0,23793.0,21005.9,24906.6,24730.6,21900.3,26782.2,30483.4,18883.1,24064.0,29591.9,22148.9,24598.5,47077.3,26790.4,23905.8,25017.5,19086.2,0.0,759182.4,
580,0.984,9581.1,12583.3,17163.8,16236.9,11524.0,12526.7,12912.4,8746.3,11089.5,10884.6,6172.8,10351.2,10913.8,6484.5,29726.5,7986.3,10388.7,12590.6,16013.0,0.0,854163.0,A lot of strong purple radiating out from around the dot.
581,0.545,12314.9,13081.5,14611.2,13021.0,11170.1,12032.5,11869.3,10423.3,11562.7,11808.7,10424.0,9604.7,9625.9,11801.3,41462.9,8804.1,10850.9,12613.5,14099.3,0.0,863869.5,
582,0.709,14680.6,18331.2,25281.0,26899.7,19473.9,26673.5,28523.6,19310.3,21978.9,28590.0,22882.1,26460.9,29669.7,17474.2,37384.1,31967.4,35065.8,25969.9,27049.4,0.0,872599.4,
583,0.418,12539.1,15069.3,19526.1,15961.5,12907.0,14554.8,13952.4,11796.9,10405.0,11638.3,10783.8,15809.8,11996.4,11285.3,22429.2,11287.6,13140.0,12471.8,15402.3,0.0,915783.1,
584,0.504,10266.0,14709.8,19591.7,21003.4,13011.0,16750.1,21064.6,13955.9,18868.4,24726.1,16871.2,22017.6,25564.6,17688.8,23390.7,21596.8,22159.9,26626.7,27680.8,0.0,873659.4,
585,0.461,10473.9,15217.2,14247.7,13103.6,15815.4,18062.8,19329.9,22975.1,19985.7,16205.1,11140.9,15959.0,16256.4,8005.6,17272.0,13810.9,17332.4,18517.9,14900.9,0.0,845183.1,
586,0.826,13999.3,14770.1,16741.0,16336.2,16666.0,14901.3,18513.1,20507.8,12842.0,17564.5,12751.5,12396.3,16133.3,16094.7,15356.5,11102.0,17007.3,22189.7,22371.6,0.0,795741.9,
587,0.586,17770.8,17484.4,18094.9,16169.8,13945.7,13678.4,12145.8,17616.5,12523.4,14807.2,14334.3,13961.2,12013.0,17161.2,22180.6,18422.0,12272.6,14915.9,20646.5,0.0,821341.0,
588,0.326,21925.0,20193.6,20838.2,25575.9,22434.4,24250.7,25832.0,22896.7,25516.8,21926.7,19193.5,32219.7,26406.5,22673.9,20784.2,24028.2,25806.4,24803.8,26910.8,0.0,831955.7,
589,0.415,18691.8,24931.6,30078.8,30602.7,22203.3,25679.6,27624.5,18784.5,24850.6,28837.3,10601.3,20108.2,28548.1,14871.0,13560.0,11239.6,23625.4,29974.5,32753.9,0.0,815118.2,Like a big corona around the dot. Almost like an egg swirling around it. And purple with fine details- dots like partially covered by the purple swirling egg thing
590,0.59,11788.6,17106.3,16717.6,9972.3,12689.5,10778.7,11541.1,9688.8,8100.4,7433.5,6075.5,9634.4,9302.4,7912.7,12216.2,5682.1,6578.1,10864.5,8194.9,0.0,964483.1,
591,0.547,16188.4,17153.6,18028.6,19913.0,16303.5,16307.4,16401.9,16956.6,16324.0,13790.1,15841.9,20002.0,17398.7,17129.2,15467.0,14869.3,15749.6,18986.1,17367.7,0.0,827130.9,
592,0.33,10677.9,8704.8,9099.9,14333.1,11393.7,9868.1,11400.9,18243.0,15909.9,17328.8,19966.4,17782.3,17101.0,14134.3,21212.2,19529.4,14065.4,17488.6,15001.5,0.0,902807.5,
593,0.479,7551.3,11657.4,18201.7,15345.7,9114.3,12303.3,13937.7,8899.9,10378.0,7109.3,6542.9,15531.2,13047.5,6597.3,23218.8,6699.4,11318.6,13008.4,8335.8,0.0,807550.8,
594,0.414,5743.9,5737.7,8006.5,7055.5,6681.3,7614.7,7701.5,4531.3,7277.6,7825.7,3516.8,10268.7,9009.8,4117.8,17543.5,5603.3,7383.0,8421.0,7400.8,0.0,762291.9,
595,0.747,15559.2,19882.8,23969.4,21915.7,19736.1,22570.2,25207.4,18217.0,22006.2,19300.5,16143.1,18609.7,21311.5,16437.9,19531.5,17422.1,18896.3,20582.0,18968.4,0.0,851420.5,
596,0.672,20143.7,22420.5,22931.6,19653.2,21138.2,21896.4,21290.2,20504.1,24318.1,22663.1,19716.9,30414.5,26985.2,18258.7,25788.6,19470.9,25848.1,25094.2,22366.3,0.0,875111.7,
597,0.272,10933.0,12969.7,15511.6,12407.6,13088.1,13942.4,12957.5,14387.8,14645.5,12735.6,13288.6,15539.8,12566.6,13560.8,18854.8,17369.6,13821.9,13224.4,11375.7,0.0,894548.6,
598,0.305,6955.2,9309.4,11799.9,11744.7,10720.5,11582.5,11640.3,9155.5,12344.8,14557.7,10478.6,13076.0,16169.6,7883.8,17945.9,12249.4,15620.1,13476.1,16840.6,0.0,936051.9,
599,0.521,6888.3,8021.2,11685.7,11735.7,9259.6,8634.0,9841.7,8948.9,11806.3,9899.1,7746.0,13044.9,11388.6,6641.8,18207.1,8958.9,14411.5,10401.9,10626.3,0.0,862527.0,
600,0.41,22621.0,20463.6,22267.3,25487.2,21133.0,22301.4,22282.9,20508.9,17452.3,26671.5,22472.8,25323.1,25655.2,25996.9,21549.9,20243.4,24809.0,23098.8,27105.2,0.0,920651.1,
601,0.403,16396.4,19581.9,21721.9,18702.1,15795.6,17673.0,16128.3,16500.0,14011.5,15193.8,14518.8,14004.6,13056.8,16126.7,21476.1,15290.8,17067.5,13350.2,17803.7,0.0,849519.2,
602,0.436,49921.3,63072.0,67280.1,60132.7,54129.2,56146.8,55562.1,38962.9,36713.2,31141.2,31952.5,37132.5,35728.8,36325.9,39357.5,30106.9,29950.0,42206.2,40659.2,0.0,1005226.1,
603,0.603,7160.3,12656.7,18310.6,14972.2,10418.2,14546.5,15559.3,9772.6,12810.4,8184.2,7101.6,8977.8,9692.4,6524.3,5681.8,8672.8,7260.6,12433.8,11366.1,0.0,852205.5,
604,0.976,21765.3,29343.8,40444.3,41572.7,25577.9,31779.5,33685.9,19959.5,28100.1,22594.4,12905.5,16430.4,21312.5,13719.6,21819.0,14522.0,13596.1,29008.2,33107.1,0.0,947926.7,
605,0.269,12876.4,17477.9,20638.0,18256.3,17765.1,24436.2,24696.9,14149.9,31863.9,18685.3,8044.3,31682.3,18796.9,11747.9,23772.1,16313.4,23077.0,22254.0,17245.6,0.0,951720.7,
606,0.341,15257.5,14327.3,15237.0,16596.4,19497.3,19252.9,17703.5,35223.7,39974.8,18061.4,34533.0,145789.5,38086.7,27974.8,60852.6,66467.7,38478.0,26605.4,24679.7,0.0,935932.1,
607,0.257,9718.8,11503.6,13057.8,12590.9,14506.1,16368.1,16969.0,17383.1,19933.0,13955.9,11144.4,21855.4,17428.6,10673.6,26454.3,15441.4,18481.9,17060.1,16609.0,0.0,946489.0,
608,0.286,9078.8,13381.7,18420.9,17051.0,13139.6,18711.0,18670.1,8237.7,15907.3,42104.9,9809.6,18375.1,25126.7,6314.9,13104.7,16887.4,76156.4,16158.1,25201.4,0.0,1040664.0,
609,0.291,8914.2,11307.3,14970.0,16236.6,12709.7,15538.3,17590.7,12750.1,13968.8,19083.1,21361.5,70325.9,25013.2,7413.3,33343.8,71216.6,33144.3,15175.0,13594.2,0.0,1188757.5,
610,0.287,27585.1,36128.4,41276.2,38107.7,36249.6,41651.5,41896.2,17981.9,30389.3,32373.3,22826.9,205559.9,74498.0,11087.0,48006.7,144409.9,154489.1,29644.1,26723.4,0.0,1001513.8,
611,0.501,14179.9,18895.1,16792.8,15685.9,16330.2,19989.6,20040.6,17796.0,20854.4,20164.4,31530.4,126826.6,43959.0,19307.2,55762.0,74745.1,50962.3,20594.3,15817.5,0.0,1010888.0,
612,0.256,14081.1,12933.2,12874.3,15706.8,16628.1,17354.0,16596.6,17143.8,25389.0,15468.7,19043.0,52302.0,24664.2,16510.2,30437.3,22526.4,28375.4,19308.7,15607.8,0.0,1015266.6,
613,0.27,4490.8,8430.2,10848.0,9688.4,7477.4,9650.7,9693.9,5497.4,7146.3,10253.0,4670.3,12355.2,10759.3,3643.5,8136.4,13888.1,14812.0,13495.3,9263.5,0.0,1057405.2,
614,0.239,7646.9,9944.4,9561.6,10462.9,9624.1,10440.1,10890.6,6024.0,10258.5,5625.0,6353.6,49509.8,11375.7,6445.3,9528.2,23444.4,17344.1,9733.4,9965.6,0.0,1139393.8,
615,0.404,8843.3,13375.0,17283.1,16284.0,13703.2,19104.4,17807.4,16434.2,22844.3,15377.1,12508.1,71190.2,22304.3,9109.8,39585.9,32508.7,30138.5,16230.4,23113.3,0.0,1069712.7,
616,0.415,16929.4,21254.6,23341.1,21416.7,19954.8,22145.3,22847.3,20894.3,26537.1,18209.9,13316.6,62101.5,23998.3,13008.2,27132.0,25752.2,19880.2,23797.7,21035.0,0.0,1048550.7,
617,0.353,12098.2,14384.4,14986.9,16393.9,13847.9,16649.6,17689.4,13942.7,22880.3,23627.7,16551.7,93755.6,41729.6,13618.7,31266.1,36462.1,56641.9,21674.4,17693.1,0.0,988567.9,
618,0.221,12053.1,13770.6,15806.0,15412.2,14361.2,16494.0,17116.9,13034.6,17567.0,12262.3,14994.1,18431.5,13287.9,12366.6,25751.6,18222.7,12112.2,15213.8,13465.4,0.0,996675.1,
619,0.256,7406.2,10829.6,12055.9,13293.8,10093.2,10164.8,11607.8,10580.9,10952.5,18664.9,9072.5,12637.6,13121.0,9442.3,13460.0,8771.8,14773.2,11688.6,24113.0,0.0,1023531.9,
620,0.341,16393.1,20182.8,24595.7,23977.4,22521.0,23280.3,23979.9,27483.4,26831.3,27593.5,16774.6,24698.3,23050.8,21215.1,40515.4,14859.8,16836.8,25116.6,39920.5,0.0,849674.7,
621,0.183,8718.4,9865.3,14678.6,14833.0,12327.6,13835.9,13301.5,11403.4,12927.5,12688.3,6849.4,10324.3,11577.0,7558.8,25405.1,7838.3,12651.4,12704.5,15947.9,0.0,894617.2,
622,0.196,10762.5,11098.3,14158.5,12068.1,12496.4,14210.0,15878.1,12207.3,17179.0,12550.2,9142.1,20711.9,13764.7,8964.6,18319.5,18483.3,15530.7,13179.4,14764.0,0.0,1026846.8,
623,0.22,8978.6,9388.9,10048.1,9552.4,10068.4,9352.0,11077.6,12826.8,14466.3,12603.8,11347.2,32147.0,16361.6,12789.4,17199.9,14587.6,20914.4,11351.6,12530.5,0.0,977838.2,
624,0.292,17820.6,22252.5,24878.9,25091.6,23052.5,26660.0,26088.3,26121.6,33337.3,32548.2,18617.4,77523.4,40673.3,18547.0,42610.5,48169.6,45161.2,30027.7,32722.5,0.0,812986.7,
625,0.361,26257.5,26979.8,26162.9,27310.7,24566.3,24594.3,23243.7,23115.7,20727.9,22002.1,19625.8,35409.0,21191.7,21673.6,34536.0,38690.3,19578.7,21463.9,27429.9,0.0,947404.1,
626,0.221,12304.3,10512.7,9350.6,12639.9,10692.8,9421.7,11717.5,15596.9,12537.4,10599.7,24303.5,16951.7,12768.5,25976.9,13974.9,19516.4,13182.4,12600.4,15610.7,0.0,795357.0,
627,0.242,13312.9,14311.6,22929.0,35827.5,19749.8,23925.9,28173.3,18910.0,29138.8,31828.6,15320.1,32208.7,39352.4,16455.6,22964.5,18479.8,28276.3,34074.6,46388.0,0.0,968023.0,
628,0.27,17634.5,14707.0,14932.4,13471.5,17188.0,15722.4,14902.3,19657.6,16912.1,12019.8,16650.6,17792.5,13228.7,17465.8,13402.7,15207.8,12262.1,11834.7,15106.5,0.0,974846.8,
629,0.209,6121.4,9224.2,15933.6,15609.1,8933.6,12213.4,14318.1,9698.1,11787.3,7533.5,7309.5,19312.6,12768.4,10155.3,11417.1,7514.6,12257.8,12923.4,13085.3,0.0,776557.0,
630,0.335,15339.6,19117.6,20724.4,17649.9,18625.4,20786.2,18285.8,16807.8,23736.8,15207.3,14068.5,20269.7,17904.6,15232.4,19157.8,13498.9,13221.2,19520.5,17389.3,0.0,995814.0,
631,0.513,13537.6,15887.0,18238.8,18108.8,15232.1,17169.8,16549.3,15293.2,20843.7,15492.1,8338.5,68844.4,27316.5,8996.2,28670.6,26882.3,21669.6,20736.3,15864.0,0.0,837764.6,Sense of a purple mist
632,0.216,8026.9,10267.8,8734.0,7130.8,9001.7,9501.6,9250.1,10807.0,11626.6,12642.5,28173.0,78594.6,18448.9,8868.4,32114.2,121857.5,61470.0,9152.3,7538.7,0.0,848151.0,
633,0.441,13087.1,16523.8,20821.7,20186.7,18677.8,22174.2,23593.6,18396.9,30172.6,29160.5,37822.6,100493.1,42990.0,15629.9,47408.0,86084.8,79121.0,25984.7,24851.6,0.0,829988.1,
634,0.239,12228.8,13122.7,16018.7,14084.1,14880.1,17146.1,15980.2,16106.6,19068.9,11608.2,13098.4,46220.8,19877.4,12531.0,36865.6,26092.8,18681.0,15736.3,16725.3,0.0,791562.6,
635,0.213,17678.8,20591.9,22622.5,21392.7,25783.5,27754.1,27608.5,23588.8,42619.4,18507.4,14060.6,61055.5,30376.0,15079.2,28389.7,19045.4,26813.7,28328.5,24054.1,0.0,863660.6,
636,0.231,14460.6,15530.5,17804.4,12601.3,16351.3,20790.6,16993.9,11266.4,21436.0,7840.9,12187.5,52698.3,15357.3,8642.0,15014.1,48423.9,22270.5,15531.2,12598.5,0.0,831677.1,
637,0.222,11154.6,16152.6,14144.8,10589.5,17736.0,18807.2,15913.5,11711.9,15547.8,12707.0,31350.2,115764.7,28975.2,10407.6,34680.3,130123.4,89262.9,10899.3,8447.0,0.0,749488.1,
638,0.259,8097.1,14580.5,14046.9,10333.3,13577.7,15201.5,12514.9,12358.3,17772.0,12040.6,11075.6,112603.5,37530.1,6120.8,37636.0,53695.6,69277.9,13543.2,10322.4,0.0,757225.5,
639,0.44,13099.9,11795.3,14395.7,16248.8,14349.6,14941.2,15788.2,18090.2,22472.3,19362.4,14199.2,33265.5,25776.6,14648.5,45769.5,15378.5,19919.1,24087.0,22507.3,0.0,844957.6,
640,0.186,7565.3,8415.2,9039.9,10311.3,9469.3,9418.4,9669.1,8162.7,9424.9,11482.0,10390.3,42428.3,15882.8,8626.3,22494.4,21087.3,22243.7,9167.2,10864.9,0.0,783268.7,
641,0.203,5859.9,9792.2,10468.6,9778.7,9864.2,11023.7,10936.7,7971.7,13366.0,7506.7,8423.1,18135.4,8154.1,8439.5,35705.1,16723.5,8721.0,9766.6,14300.2,0.0,669214.9,
642,0.404,10843.3,13133.5,19159.5,21951.1,16302.2,19170.2,19799.9,13251.4,17051.1,17170.9,11202.3,15181.6,16429.4,8590.2,18972.2,15303.4,13133.6,19155.3,27735.3,0.0,725332.3,Purpleish pink dot still there behind it
643,0.591,6973.5,8584.1,6961.4,6714.1,9265.5,8428.2,7868.7,6916.5,10505.0,7516.0,7630.4,12261.1,11378.6,5494.2,11263.9,9576.5,8246.5,10243.8,7352.9,0.0,726575.2,
644,0.353,9783.4,10162.4,9508.9,11587.5,10078.0,9064.8,9532.6,15393.9,14088.4,13323.9,11395.5,17104.3,14431.6,12024.8,17710.0,11344.6,13847.6,13070.3,17044.4,0.0,790672.5,
645,0.288,11299.7,16510.3,17627.9,14308.9,15181.4,17004.5,15753.2,16250.3,18131.5,10288.8,10633.1,12568.5,9768.1,9797.3,19621.2,9216.0,8740.7,12622.9,11331.5,0.0,718431.3,
646,0.253,13162.7,11778.9,10713.4,10894.4,11147.9,10687.7,9718.2,9396.4,9569.9,14415.5,9678.0,8325.8,8543.1,10323.1,11330.3,8516.1,12171.5,7428.8,19768.5,0.0,688260.6,
647,0.231,16215.7,19071.1,20273.7,23367.7,19853.3,19597.3,21698.1,19460.5,22714.1,23280.5,16436.2,27294.6,25137.3,14531.9,70572.8,21603.1,19377.9,21920.1,28646.1,0.0,659989.2,
648,0.259,11324.0,12325.8,16323.8,16130.0,11242.2,13732.4,14096.3,11534.7,14856.3,22233.1,15807.2,16776.9,17903.2,12185.2,86257.9,21539.1,21585.9,17127.9,20861.3,0.0,690263.7,
649,0.206,4742.2,6532.2,7652.8,9212.7,7314.4,8812.4,9170.8,5671.1,6098.8,10056.6,4490.7,5281.5,9216.3,5504.7,15706.3,3597.1,6936.8,9655.6,10349.5,0.0,650475.6,Rotating chrysanthemum on various planes.
650,0.917,8946.1,14306.9,16332.5,11764.8,14521.8,16122.7,14492.4,11160.8,16033.5,13851.5,8691.4,17258.8,16311.6,7758.8,17035.4,12381.6,21897.1,14643.6,12234.6,0.0,762372.9,
651,0.424,18118.8,26148.0,31904.7,27791.7,22034.6,25171.1,26562.1,17282.9,21555.7,15642.5,13060.5,21051.0,18587.4,12631.3,45100.1,15410.9,14476.2,22291.0,17356.7,0.0,709763.9,
652,1.233,13494.7,33938.8,53873.8,22335.9,17686.8,20998.1,21755.1,14021.8,16885.2,10781.1,9603.9,10798.3,11394.0,9241.4,35132.9,10239.9,10210.2,16971.3,12262.0,0.0,726888.8,
653,257.38,91364.9,324381.6,1017698.6,89033.8,47248.5,51588.7,79900.4,37148.4,57267.8,50017.9,14658.5,38327.3,38149.8,1067560.6,67644.0,19769.1,19739.0,49349.4,114714.4,0.0,635559.5,FRUITION-CALC
654,12.386,22091.4,72582.3,133171.7,31908.9,20686.2,19679.1,21253.6,21370.6,23497.9,20775.3,20813.7,21348.9,23184.7,62258.4,34473.7,22477.7,25796.0,24719.2,27669.4,0.0,635421.4,
655,2.634,4855.6,7792.4,11149.8,8181.8,7294.2,10143.8,10174.0,5268.1,7117.0,18007.4,10411.9,16932.9,13981.0,6492.4,40871.0,35511.9,29288.0,9370.3,12394.3,0.0,696557.1,
656,0.659,12845.1,15331.5,14819.5,12605.1,16092.7,17171.9,14901.6,14265.6,22931.7,28164.5,10750.7,116406.1,45716.9,10086.6,52354.9,43713.6,101181.3,19615.7,22023.3,0.0,566069.5,
657,1.419,11026.5,12786.1,16186.3,12391.7,13277.0,15039.0,13477.5,14209.2,19349.8,9544.0,8235.7,59277.1,20280.2,12743.1,19069.6,17205.8,28456.4,14408.4,9776.3,0.0,894662.2,
658,1.586,28260.0,29032.2,26581.9,33251.3,30719.3,30827.9,33004.8,31460.1,35428.7,27308.1,12721.1,87168.6,43550.1,20162.8,199477.1,28574.6,70185.3,30239.9,30603.8,0.0,990394.9,
659,1.757,4879.8,5381.8,7808.7,7011.8,4998.2,5755.4,6302.7,9158.7,13479.7,13709.0,15121.0,77414.2,22794.8,6938.6,75152.3,42445.6,44839.7,10086.6,9321.1,0.0,1067152.4,
660,0.928,15689.8,17031.8,16472.6,17220.3,18741.7,18075.3,17757.4,17126.5,25290.5,25350.6,19787.4,48875.6,29895.2,16961.6,42109.0,31330.0,42104.0,20983.6,22605.8,0.0,778323.4,
661,0.503,14449.5,14982.1,17801.4,18047.1,14958.7,16537.0,18860.7,14866.7,21897.4,27303.3,10501.1,98109.7,41924.1,9854.8,36009.8,41246.1,66981.5,22710.9,28896.2,0.0,608816.0,
662,0.267,17056.7,16989.7,17799.8,17694.2,17644.6,17486.7,17271.2,16031.0,22190.2,21816.2,19610.0,70192.4,31266.9,14930.5,41405.2,37903.3,41254.5,19357.5,18727.9,0.0,744576.0,
663,0.361,28883.3,31542.4,28930.6,30140.3,31610.4,35561.5,34733.3,30049.2,47549.4,29796.2,27459.3,116405.3,51170.3,22645.0,64265.9,56259.9,69549.8,38405.4,32151.0,0.0,671010.1,
664,0.293,15621.9,20447.6,25694.9,31567.1,20280.3,28602.0,33105.1,19428.2,34698.3,66496.5,21441.9,43177.1,55132.4,16333.9,99503.6,32059.3,93199.1,36976.3,45608.8,0.0,849721.0,
665,0.267,20604.3,30073.1,36170.1,36376.8,31847.2,40314.9,43915.3,37159.4,64994.8,72481.1,44710.0,301683.2,133916.4,20103.1,100736.8,185848.0,222320.0,56932.3,48452.4,0.0,765516.9,
666,0.321,15038.7,19480.0,28218.9,26495.3,17672.6,22351.7,26759.8,11841.8,27907.5,52121.9,14707.4,90904.0,72428.2,10099.4,24826.4,68071.4,176648.8,27806.5,24732.7,0.0,840570.4,
667,0.207,9680.4,11977.1,16343.9,18010.2,15452.5,19698.4,20498.5,8648.2,28041.8,38853.8,12740.6,140496.3,70274.0,5957.5,95749.2,47577.9,108709.8,26603.6,18588.9,0.0,733967.2,
668,0.209,13308.9,15923.2,17238.6,19261.6,15067.0,18205.7,20784.5,11776.5,24538.7,40787.2,21774.8,65390.2,47541.9,10805.1,34619.5,59762.7,75209.0,25772.0,19111.5,0.0,858928.0,
669,0.218,22878.9,34564.3,42088.6,30885.9,38275.3,47867.3,44675.6,36048.9,60944.5,30071.7,31684.3,206847.3,68626.4,19187.2,91441.6,110884.2,95228.5,43936.9,27121.0,0.0,850989.8,
670,0.176,16989.0,23412.4,28520.0,22088.7,26485.4,32799.8,29593.8,19396.3,39226.1,19600.4,16553.1,172089.8,65776.6,11018.2,38472.1,108653.8,121683.0,27632.3,20725.1,0.0,828740.9,
671,0.336,18929.0,23773.8,27770.1,25476.0,27974.4,33092.2,28326.8,21322.8,35826.8,52020.6,30050.2,132814.2,82831.7,17872.5,59148.4,85911.3,171500.0,33185.8,24769.1,0.0,855362.7,
672,0.305,10494.6,15616.3,19638.2,18308.2,18107.1,22081.7,22856.4,17527.5,31770.6,46064.4,35648.2,124355.5,79694.4,14856.5,51872.1,92163.0,137395.8,29584.9,26835.8,0.0,953613.9,that  was  a  no  self fruition  of  the  chrysanthemum  rotating  into  my  face.  
673,0.396,21788.0,35042.7,37494.0,35066.9,30298.1,35856.1,36173.1,21086.9,40219.1,61011.6,19674.6,35882.9,58463.6,12440.0,44916.6,52607.5,103789.0,42274.0,40989.6,0.0,735923.2,
674,0.301,8252.7,12920.2,18978.0,19710.8,13175.0,17166.2,20120.7,10104.6,19633.5,35865.5,15228.6,48690.7,38864.8,6713.5,54262.7,68245.2,86138.4,22048.9,22802.6,0.0,854225.6,
675,0.371,25173.3,30000.3,31905.4,32794.5,29110.7,29866.4,30640.8,23659.1,35583.8,67483.8,20640.0,91222.8,74294.3,19861.8,30282.0,50370.9,147676.9,36469.2,41611.8,0.0,854057.0,
676,0.696,30364.2,36688.0,50296.0,55566.9,38362.4,45784.3,51824.1,39181.3,62854.5,55355.8,27104.7,128198.1,82867.1,26549.4,65002.4,51144.0,60549.3,67155.7,60789.8,0.0,874853.4,
677,0.422,8250.1,11970.5,16788.3,19560.7,12952.4,17170.7,20678.9,11154.1,21054.0,23148.6,25346.6,142599.0,44749.6,7943.4,47358.2,136598.4,148326.3,21070.6,13649.0,0.0,913040.8,
